# Wavelength[nm]	T% in a parallel beam at AOI 5 deg
1100	0.00206
1099.5	0.00251
1099	0.00121
1098.5	0.00093
1098	0.00233
1097.5	0.0031
1097	0.00302
1096.5	0.00466
1096	0.00103
1095.5	0.00101
1095	0.00229
1094.5	0.00574
1094	0.0018
1093.5	0.00071
1093	0.0012
1092.5	0.00256
1092	0.0017
1091.5	0.00193
1091	0.00076
1090.5	0.00306
1090	0.00246
1089.5	0.00178
1089	0.00101
1088.5	0.00177
1088	0.00127
1087.5	0.00194
1087	0.00118
1086.5	0.00219
1086	0.00094
1085.5	0.00115
1085	0.00153
1084.5	0.00193
1084	0.00033
1083.5	8E-05
1083	0.00236
1082.5	0.0005
1082	0.00017
1081.5	0.00192
1081	0.00225
1080.5	0.00085
1080	0.00268
1079.5	0.00099
1079	0.00133
1078.5	0.00395
1078	0.00031
1077.5	0.00221
1077	0.00049
1076.5	0.0013
1076	0.00395
1075.5	0.00515
1075	0.00799
1074.5	0.00724
1074	0.0071
1073.5	0.0077
1073	0.01081
1072.5	0.0062
1072	0.00996
1071.5	0.00994
1071	0.00456
1070.5	0.00686
1070	0.00421
1069.5	0.00049
1069	0.00298
1068.5	0.00148
1068	0.00176
1067.5	0.00437
1067	0.00249
1066.5	0.00022
1066	0.00026
1065.5	0.00046
1065	0.0001
1064.5	0.0007
1064	0.00048
1063.5	0.00226
1063	0.0048
1062.5	0.00114
1062	0.00152
1061.5	0.00128
1061	0.00113
1060.5	0.00087
1060	0.0022
1059.5	0.00198
1059	0.00039
1058.5	0.00112
1058	0.00313
1057.5	0.0027
1057	0.00165
1056.5	0.00394
1056	0.00282
1055.5	0.00127
1055	0.00078
1054.5	0.00242
1054	0.00257
1053.5	0.00055
1053	0.0013
1052.5	0.00025
1052	0.00014
1051.5	0.00124
1051	0.00165
1050.5	0.00242
1050	0
1049.5	0.00319
1049	0.00017
1048.5	0.00216
1048	0.00048
1047.5	0.00231
1047	0.00359
1046.5	0.00077
1046	0.00123
1045.5	0.00046
1045	0.00098
1044.5	0.0026
1044	0.0023
1043.5	0.00229
1043	0.00069
1042.5	0.00145
1042	0.00069
1041.5	0.00242
1041	0.00192
1040.5	0.00078
1040	0.00084
1039.5	0.00053
1039	0.00142
1038.5	0.00114
1038	0.00023
1037.5	6E-05
1037	0.00182
1036.5	0.0003
1036	0.00142
1035.5	0.0004
1035	0.00187
1034.5	0.00227
1034	0.00164
1033.5	0.00128
1033	0.00023
1032.5	0.00032
1032	0.00338
1031.5	0.00266
1031	0.00481
1030.5	0.0013
1030	0.00122
1029.5	0.00108
1029	0.00083
1028.5	0.00198
1028	0.0016
1027.5	0.00179
1027	0.00023
1026.5	0.00058
1026	0.00121
1025.5	0.0036
1025	0.00332
1024.5	0.00068
1024	0.0016
1023.5	0.00145
1023	0.00164
1022.5	0.00211
1022	0.0006
1021.5	0.00108
1021	0.00074
1020.5	0.00199
1020	0.00025
1019.5	0.00149
1019	0.00294
1018.5	0.00305
1018	0.00046
1017.5	0.00139
1017	0.00032
1016.5	0.00281
1016	0.00142
1015.5	0.00135
1015	0.00048
1014.5	0.00135
1014	0.00055
1013.5	0.00381
1013	0.00366
1012.5	0.00137
1012	0.00013
1011.5	0.00361
1011	2E-05
1010.5	0.00136
1010	0.00061
1009.5	0.00075
1009	0.00255
1008.5	0.00182
1008	0.00269
1007.5	0.001
1007	0.00323
1006.5	0.00324
1006	0.00039
1005.5	0.0011
1005	0.00232
1004.5	0.00312
1004	0.00046
1003.5	0.00033
1003	0.00194
1002.5	0.00078
1002	0.00109
1001.5	0
1001	0.00242
1000.5	0.00033
1000	0.00139
999.5	2E-05
999	0.00346
998.5	0.00073
998	0.00205
997.5	0.00065
997	0.00125
996.5	0.00182
996	0.00388
995.5	0.00056
995	0.00121
994.5	0.00014
994	0.00134
993.5	0.0032
993	0.00177
992.5	0.00159
992	0.00379
991.5	0.00103
991	0.00558
990.5	0.00333
990	0.00065
989.5	0.00285
989	0.00204
988.5	0.00154
988	0.00246
987.5	0.00222
987	0.00082
986.5	0.00068
986	0.00174
985.5	0.00123
985	0.00083
984.5	0.00044
984	0.00015
983.5	0.00193
983	0.00118
982.5	0.0011
982	0.00146
981.5	0.00213
981	0.00313
980.5	0.00145
980	0.00011
979.5	0.00017
979	0.00043
978.5	0.00087
978	0.00156
977.5	0.0022
977	0.00256
976.5	0.00125
976	0.0009
975.5	0.00177
975	0.00267
974.5	0.00185
974	0.00369
973.5	0.00061
973	0.00189
972.5	0.00328
972	0.00054
971.5	0.002
971	0.00713
970.5	0.02254
970	0.00371
969.5	0.00435
969	0.0013
968.5	0.00026
968	0.00084
967.5	0.00263
967	0.00068
966.5	0.00301
966	0.00069
965.5	0.00172
965	0.00339
964.5	0.0021
964	0.00146
963.5	0.00183
963	0.00228
962.5	0.00111
962	0.00082
961.5	0.00278
961	0.0037
960.5	0.0008
960	0.00073
959.5	0.00183
959	0.00523
958.5	0.00349
958	0.00206
957.5	0.00083
957	0.00073
956.5	0.00084
956	0.00129
955.5	0.00138
955	0.00418
954.5	0.00268
954	0.00267
953.5	0.00138
953	0.00305
952.5	0.00011
952	0.00163
951.5	0.00247
951	0.00416
950.5	0.00225
950	0.00014
949.5	0.00478
949	3E-05
948.5	0.00208
948	0.00137
947.5	0.00129
947	0.00023
946.5	0.00157
946	0.00012
945.5	0.00063
945	0.00195
944.5	0.00098
944	0.00037
943.5	0.00065
943	0.00022
942.5	0.00149
942	0.00022
941.5	0.00042
941	3E-05
940.5	0.00052
940	0.00066
939.5	0.00029
939	0.003
938.5	0.00092
938	0.00213
937.5	0.00131
937	0.00017
936.5	0.00072
936	0.0064
935.5	0
935	0.00075
934.5	0.00262
934	0.00058
933.5	0.00044
933	0.00203
932.5	0.00269
932	0.00106
931.5	0.00164
931	0.00077
930.5	0.00094
930	0.00405
929.5	0.0045
929	0.00487
928.5	0.00049
928	0.00319
927.5	0.00117
927	0.00276
926.5	0.00413
926	0.00454
925.5	0.00301
925	0.00112
924.5	0.002
924	0.00032
923.5	0.00037
923	0.00264
922.5	0.00038
922	0.00058
921.5	0.00354
921	0.00045
920.5	0.00141
920	0.00199
919.5	0.00124
919	0.00564
918.5	0.00048
918	0.00069
917.5	0.00151
917	0.00246
916.5	0.00044
916	0.00358
915.5	0.00339
915	0.00063
914.5	0.00115
914	0.00181
913.5	0.00213
913	0.00018
912.5	0.00144
912	0.00164
911.5	0.00141
911	0.00204
910.5	0.00075
910	0.00227
909.5	0.0056
909	0.00103
908.5	0.0062
908	0.00156
907.5	0.00314
907	0.00191
906.5	0.00079
906	0.004
905.5	0.00241
905	0.00108
904.5	0.00651
904	0.00191
903.5	0.00137
903	0.00055
902.5	0.0025
902	0.0047
901.5	0.00651
901	0.00164
900.5	0.00402
900	0.00123
899.5	0.00438
899	0.0047
898.5	0.00237
898	0.0009
897.5	0.00128
897	0.00243
896.5	0
896	0.00239
895.5	0.00031
895	0.00094
894.5	0.01003
894	0.00931
893.5	0.00778
893	0.00735
892.5	0.00188
892	0.01108
891.5	0.00465
891	0.00595
890.5	0.0065
890	0.00587
889.5	0.00446
889	0.00658
888.5	0.00105
888	0.00282
887.5	0.0032
887	0.00215
886.5	0.00072
886	0.00501
885.5	0.00212
885	0.00111
884.5	0.00233
884	0.00311
883.5	0.00304
883	0.00125
882.5	0.00068
882	0.00156
881.5	0.00237
881	0.0004
880.5	0.00511
880	0.00121
879.5	0.00651
879	0.00082
878.5	0.00197
878	0.00419
877.5	0.00127
877	0.00043
876.5	0.00032
876	0.00216
875.5	0.0035
875	0.00044
874.5	0.00879
874	0.00808
873.5	0.00226
873	0.00011
872.5	0.00138
872	0.00221
871.5	0.00235
871	0.00581
870.5	0.01003
870	0.00289
869.5	0.00791
869	0
868.5	0.00298
868	0.0065
867.5	0.00504
867	0
866.5	0.00565
866	0.00569
865.5	0.00418
865	0.01633
864.5	0.00466
864	0.01513
863.5	0.00108
863	0.00982
862.5	0.00716
862	0.00667
861.5	0.00672
861	0.00495
860.5	0.00742
860	0.00906
859.5	0.00536
859	0.00482
858.5	0.00074
858	0.0049
857.5	0.0012
857	0.00181
856.5	0.01094
856	0.00061
855.5	0.00062
855	0.00187
854.5	0.00675
854	0.00126
853.5	0.00064
853	0.01751
852.5	0.00648
852	0.00473
851.5	0.00148
851	0.00862
850.5	0.004
850	0.01619
849.5	0.00618
849	0.01029
848.5	0.03397
848	0.00462
847.5	0.00888
847	0.02641
846.5	0.00334
846	0.00496
845.5	0.02651
845	0.01565
844.5	0.01237
844	0.00514
843.5	0.01983
843	0.03278
842.5	0.00999
842	0.01506
841.5	0.02204
841	0.0092
840.5	0.00488
840	0.01612
839.5	0
839	0.0214
838.5	0.00178
838	0.019
837.5	0.00224
837	0.00272
836.5	0.00357
836	0.00476
835.5	0.00614
835	0.00232
834.5	0.0056
834	0.00524
833.5	0.01408
833	0.00489
832.5	0.01433
832	0.00478
831.5	0.00958
831	0.00326
830.5	0.01444
830	0.00628
829.5	0
829	0.00341
828.5	0.00457
828	0.00632
827.5	0.00081
827	0.0056
826.5	0.00728
826	0.00624
825.5	0.00828
825	0.0064
824.5	0.00191
824	0.00501
823.5	0.01034
823	0.00716
822.5	0.00827
822	0.00181
821.5	0.00719
821	0.00093
820.5	0.00207
820	0.00152
819.5	0.00513
819	0.0024
818.5	0.00246
818	0.00155
817.5	0.00088
817	0.00095
816.5	0.00058
816	0.00022
815.5	0.0005
815	0.00484
814.5	0.00617
814	0.00332
813.5	0.0113
813	0.00028
812.5	0.00807
812	0.00076
811.5	0.00028
811	0.00131
810.5	0.00656
810	0.00706
809.5	0.01052
809	0.00297
808.5	0.00188
808	0.00584
807.5	0.00154
807	0.00274
806.5	0.00186
806	0.00106
805.5	0.00376
805	0.00131
804.5	0.00078
804	0.00436
803.5	0.00208
803	0.007
802.5	0.00568
802	0.00568
801.5	0.00129
801	0.00512
800.5	0.00326
800	0.00025
799.5	0.01625
799	0.0166
798.5	0.00138
798	0.01654
797.5	0.00137
797	0.02858
796.5	0.00218
796	0
795.5	0.00017
795	0.01394
794.5	0.01103
794	0.00579
793.5	0.01086
793	0.01221
792.5	0.00503
792	0.02756
791.5	0.00185
791	0.00077
790.5	0.00061
790	0.00904
789.5	0.00553
789	0.00845
788.5	0.00368
788	0.00525
787.5	0.01099
787	0.00402
786.5	0.00341
786	0.00296
785.5	0.00797
785	0.00111
784.5	0.0011
784	0.0143
783.5	0.00378
783	0.00576
782.5	0.01949
782	0.00303
781.5	0.00261
781	0.01201
780.5	0.00768
780	0.00051
779.5	0.00551
779	0.00049
778.5	0.00723
778	0.00243
777.5	0.00626
777	0.00466
776.5	0.01604
776	0.00246
775.5	0.00325
775	0.01013
774.5	0.0065
774	0.00045
773.5	0.00358
773	0.00755
772.5	0.00968
772	0.00218
771.5	0.00562
771	0.01113
770.5	0.00265
770	0.00042
769.5	0.00125
769	0.01575
768.5	0.01394
768	0.00569
767.5	0.01202
767	0.0001
766.5	0.00119
766	0.00118
765.5	0.00166
765	0.00339
764.5	0.0104
764	0.00887
763.5	0.00161
763	0.00385
762.5	0.00382
762	0.00028
761.5	0.00257
761	0.00691
760.5	0.00977
760	0.00546
759.5	0.00355
759	0.00939
758.5	0.00208
758	0.00284
757.5	0.00649
757	0.0023
756.5	0.01316
756	0.00579
755.5	0.00723
755	0.00363
754.5	0.01355
754	0.00163
753.5	0.00138
753	0.01065
752.5	0.00618
752	0.00072
751.5	0.00825
751	0.0041
750.5	0.00275
750	0.01065
749.5	0.00894
749	0.00155
748.5	0.01057
748	0.00338
747.5	0.0046
747	0.00977
746.5	0.00182
746	0.007
745.5	0.00098
745	0.00181
744.5	0.00642
744	0.00914
743.5	0.01288
743	0.0006
742.5	0.00385
742	0.00265
741.5	0.00121
741	0.00311
740.5	0.00709
740	0.00345
739.5	0.00903
739	0.00436
738.5	0.00408
738	0.00166
737.5	0.0083
737	0.00063
736.5	0.00845
736	0.00716
735.5	0.00587
735	0.00023
734.5	0.00114
734	0.00553
733.5	0.00151
733	0.00928
732.5	0.00238
732	0.002
731.5	0.00095
731	0.00752
730.5	0.00667
730	0.00583
729.5	0.00086
729	0.00767
728.5	0.00571
728	0.00765
727.5	0.00605
727	0.00035
726.5	0.00603
726	0.00191
725.5	0.00305
725	0.00511
724.5	0.00797
724	0.0085
723.5	0.00918
723	0.00412
722.5	0.00676
722	0.0104
721.5	0.00257
721	0.00057
720.5	0.00537
720	0.00421
719.5	0.00431
719	0.00242
718.5	0.00271
718	0.00605
717.5	0.0034
717	0.00235
716.5	0.00647
716	0.00326
715.5	0.00118
715	0.00897
714.5	0.00134
714	0.00255
713.5	0.00529
713	0.00189
712.5	0.00363
712	0.00225
711.5	0.00605
711	0.00161
710.5	0.00133
710	0.0017
709.5	0.0019
709	0.00389
708.5	0.00279
708	0.00208
707.5	0.00631
707	0.00758
706.5	0.00633
706	0.00478
705.5	0.00357
705	0.00184
704.5	0.003
704	0.00521
703.5	0.00599
703	0.0008
702.5	0.00383
702	0.00143
701.5	0.0039
701	0.00578
700.5	0.00468
700	0.00057
699.5	0.00357
699	0.00057
698.5	0.00544
698	0.0069
697.5	0.00411
697	0.00327
696.5	0.00018
696	0.00141
695.5	0.00072
695	0.00287
694.5	0.00214
694	0.00035
693.5	0.00505
693	0.00039
692.5	0.00204
692	0.00327
691.5	0.00051
691	0.00323
690.5	0.00729
690	0.00488
689.5	0.00317
689	0.00228
688.5	0.00165
688	0.00098
687.5	0.0044
687	0.00275
686.5	0.00144
686	0.00096
685.5	0.00095
685	0
684.5	0.00341
684	0.00386
683.5	0.00398
683	0.00508
682.5	0.0003
682	0.00288
681.5	0.00559
681	0.00169
680.5	0.0006
680	0.00548
679.5	0.00224
679	0.00113
678.5	0.00508
678	0.00025
677.5	0.00211
677	0.00389
676.5	0.00467
676	0.00144
675.5	0.00438
675	0.00073
674.5	0
674	0.00024
673.5	0.00409
673	0.0019
672.5	0.00256
672	0.0003
671.5	0.00053
671	0.00332
670.5	0.00188
670	0.00233
669.5	0.00055
669	0.00492
668.5	0.00103
668	0.00051
667.5	0.00319
667	0.00127
666.5	0.00369
666	0.00175
665.5	0.00349
665	0.00025
664.5	0.00282
664	0.00159
663.5	0.0027
663	0.00048
662.5	0.00601
662	0.00108
661.5	0.00062
661	0.00488
660.5	0.00261
660	0.0056
659.5	0.00235
659	3E-05
658.5	0.00129
658	0.00243
657.5	0.00341
657	0.00034
656.5	0.00295
656	0.00103
655.5	0.00367
655	0.00454
654.5	0.0022
654	0.00427
653.5	0.00225
653	0.00087
652.5	0.00269
652	0.00474
651.5	3E-05
651	0.00233
650.5	0.0014
650	0.00118
649.5	0.00284
649	0.00257
648.5	0.00237
648	0.00021
647.5	0.00131
647	0.00333
646.5	0.00144
646	0.00018
645.5	0.00103
645	0.0003
644.5	0.00119
644	0.00289
643.5	0.00032
643	0.00256
642.5	0.00358
642	0.00177
641.5	0.00036
641	0.00237
640.5	0.00384
640	0.00218
639.5	0.00518
639	0.00247
638.5	0.00075
638	0.00521
637.5	0.00074
637	0.00205
636.5	0.0019
636	0.00256
635.5	0.00229
635	0.00206
634.5	0.00386
634	0.00164
633.5	0.00127
633	2E-05
632.5	0.00162
632	0.00091
631.5	0.0013
631	0.0023
630.5	0.00268
630	9E-05
629.5	0.00112
629	0.00041
628.5	0.00524
628	0.00152
627.5	0.00257
627	0.00076
626.5	0.00069
626	0.00362
625.5	0.00326
625	0.00301
624.5	0.00251
624	0.00106
623.5	0.00041
623	2E-05
622.5	0.00123
622	0.00082
621.5	0.00065
621	0.00121
620.5	0.00032
620	0.00064
619.5	0.00115
619	0.00207
618.5	0.00336
618	0.00216
617.5	0.00343
617	0.00079
616.5	0.00118
616	0.00289
615.5	0.00353
615	0.00033
614.5	0.00236
614	0.00256
613.5	0.00093
613	0.00554
612.5	0.00214
612	0.00056
611.5	0.00331
611	0.0003
610.5	0.00177
610	0.00258
609.5	0.00325
609	0.00062
608.5	0.00096
608	0.00418
607.5	0.0003
607	0.00501
606.5	0.00024
606	0.00445
605.5	0.00163
605	0.00052
604.5	0.00127
604	0.0011
603.5	0.00152
603	0.00224
602.5	0.0053
602	0.00259
601.5	7E-05
601	0.00419
600.5	0.00358
600	0.0029
599.5	0.00129
599	0.00301
598.5	0.00048
598	0.00128
597.5	0.00034
597	0.00284
596.5	0.00129
596	0.00094
595.5	0.00182
595	0.00184
594.5	0.00049
594	0.0017
593.5	0.00097
593	0.00205
592.5	0.00175
592	0.00049
591.5	0.0011
591	0.00099
590.5	5E-05
590	0.00182
589.5	0.00019
589	0.0029
588.5	0.00124
588	0.00117
587.5	0.00057
587	0.00149
586.5	0.00268
586	0.00227
585.5	0.00408
585	0.00015
584.5	0.00128
584	0.00151
583.5	0.00048
583	0.00251
582.5	0.00095
582	0.00047
581.5	0.0002
581	0.00045
580.5	0.00188
580	0.0006
579.5	0.00369
579	0.00032
578.5	0.00314
578	0.00107
577.5	0.00132
577	0.00035
576.5	0.00066
576	0.00045
575.5	0.00058
575	0.00078
574.5	0.00223
574	0.00223
573.5	0.00028
573	0.00138
572.5	0.00035
572	0.00192
571.5	0.00202
571	0.00057
570.5	0.00408
570	0.00085
569.5	0.00249
569	0.00204
568.5	0.00085
568	0.00104
567.5	0.00318
567	0.00265
566.5	0.00176
566	0.00338
565.5	0.00249
565	0.0002
564.5	0.00284
564	0.0007
563.5	0.00317
563	0.0026
562.5	0.00116
562	0.00073
561.5	0.00058
561	0.00286
560.5	0.00103
560	0.00198
559.5	0.00224
559	0.00484
558.5	0.00334
558	0.00278
557.5	8E-05
557	0.00082
556.5	0.00284
556	0.00128
555.5	0.00088
555	0.00026
554.5	0.00136
554	0.00104
553.5	0.00301
553	0.00281
552.5	0.0025
552	0.00103
551.5	0.00232
551	0.00098
550.5	0.00487
550	0.00342
549.5	0.00072
549	0.00064
548.5	0.00167
548	0.00018
547.5	0.00314
547	0.00096
546.5	2E-05
546	0.00246
545.5	0.00027
545	0.00103
544.5	0.00463
544	0.00084
543.5	0.00262
543	0.0013
542.5	0.00059
542	0.00101
541.5	0.00103
541	0.00153
540.5	0.00116
540	0.0032
539.5	0.00344
539	0.00299
538.5	0.00498
538	0.00163
537.5	0.00052
537	0.00134
536.5	0.0002
536	0.00221
535.5	0.00089
535	0.00402
534.5	0.00111
534	0.00248
533.5	0.00024
533	0.00085
532.5	0.00119
532	0.0026
531.5	0.0017
531	0.00577
530.5	0.00171
530	0.00143
529.5	0.00084
529	0.00112
528.5	0.00053
528	0.00283
527.5	0.00055
527	0.00012
526.5	0.00193
526	0.00126
525.5	0.00195
525	0.00113
524.5	0.00488
524	0.00176
523.5	0.00148
523	0.00244
522.5	0.00034
522	0.0002
521.5	0.00034
521	0.00284
520.5	0.00042
520	0.00231
519.5	0.00109
519	0.0008
518.5	0.00295
518	0.0019
517.5	0.00242
517	0.00447
516.5	0.00166
516	0.00033
515.5	0.00286
515	0.00354
514.5	0.00214
514	5E-05
513.5	7E-05
513	0.00269
512.5	0.0022
512	0.00065
511.5	0.00064
511	0.00078
510.5	0.00266
510	0.00084
509.5	0.0026
509	0.00065
508.5	0.00117
508	0.00441
507.5	0.00174
507	0.00051
506.5	0.00173
506	0
505.5	0.00097
505	0.00053
504.5	0.00458
504	0.00281
503.5	0.00105
503	0.00058
502.5	0.00211
502	0.00053
501.5	0.00076
501	0.00078
500.5	0.00411
500	0.00023
499.5	0.00139
499	0.00041
498.5	0.002
498	0.00178
497.5	0.00259
497	0.00155
496.5	0.00168
496	0.00159
495.5	0.00397
495	0.00169
494.5	0.00056
494	2E-05
493.5	0.00165
493	0.00344
492.5	0.00371
492	0.00455
491.5	0.00316
491	0.00209
490.5	0.00303
490	0.00025
489.5	0.00205
489	0.00103
488.5	0.00105
488	0.00122
487.5	0.0002
487	0.00361
486.5	0.00062
486	0.00053
485.5	0.00374
485	0.0043
484.5	0.00309
484	0.00437
483.5	0.0024
483	0.00016
482.5	0.00208
482	0.0021
481.5	0.00192
481	0.00261
480.5	0.00145
480	0.00282
479.5	0.00069
479	0.00121
478.5	0.00072
478	0.00244
477.5	0.00114
477	0.00226
476.5	0.00101
476	0.00081
475.5	0.00282
475	0.0034
474.5	0.00032
474	0.00368
473.5	0.0067
473	0.00022
472.5	0.00256
472	0.00149
471.5	0.00125
471	0.00286
470.5	0.00046
470	0.00058
469.5	0.00295
469	0.00024
468.5	0.00276
468	0.00021
467.5	0.00377
467	0.00601
466.5	0.00074
466	0.00388
465.5	0.00166
465	0.00264
464.5	0.00114
464	0.00532
463.5	0.00038
463	0.00013
462.5	0.00404
462	0.00178
461.5	0.00088
461	0.00434
460.5	0.00049
460	0.00432
459.5	0.00555
459	0.00268
458.5	0.00217
458	0.00035
457.5	0.00545
457	0.00384
456.5	0.00244
456	0.00283
455.5	0
455	0.00486
454.5	0.00025
454	0.00228
453.5	0.00076
453	0.00173
452.5	0.004
452	0.00089
451.5	0.00259
451	0.00013
450.5	0.00078
450	0.00075
449.5	0.00195
449	0.00426
448.5	0.00064
448	0.00219
447.5	0.00357
447	0.00251
446.5	0.00652
446	0.01471
445.5	0.01124
445	0.01424
444.5	0.02113
444	0.02211
443.5	0.02401
443	0.03138
442.5	0.02917
442	0.03471
441.5	0.04846
441	0.06475
440.5	0.08766
440	0.12966
439.5	0.16854
439	0.21349
438.5	0.27042
438	0.34528
437.5	0.43254
437	0.56401
436.5	0.75347
436	1.05052
435.5	1.50939
435	2.21195
434.5	3.24063
434	4.70186
433.5	6.81964
433	9.97689
432.5	14.7543
432	21.8718
431.5	31.66
431	43.5913
430.5	56.4192
430	68.4784
429.5	78.6763
429	86.3097
428.5	90.8418
428	93.7493
427.5	95.2431
427	96.2727
426.5	96.7762
426	97.1304
425.5	97.2283
425	97.26
424.5	97.4354
424	97.2316
423.5	97.2138
423	97.0808
422.5	96.8979
422	96.9853
421.5	96.9253
421	96.7538
420.5	96.9369
420	96.8759
419.5	97.085
419	97.3336
418.5	97.3753
418	97.2543
417.5	97.1022
417	96.5874
416.5	95.3317
416	92.4875
415.5	87.4252
415	78.8987
414.5	66.1345
414	51.0078
413.5	35.8296
413	23.3434
412.5	14.6155
412	8.99938
411.5	5.52298
411	3.35758
410.5	2.0639
410	1.29256
409.5	0.86396
409	0.57149
408.5	0.38073
408	0.24786
407.5	0.16477
407	0.11441
406.5	0.07831
406	0.05692
405.5	0.05186
405	0.03641
404.5	0.02697
404	0.02401
403.5	0.01225
403	0.01193
402.5	0.01147
402	0
401.5	0.00082
401	0.00114
400.5	0.00497
400	0.01708
399.5	0.0114
399	0.00712
398.5	0.00136
398	0.00554
397.5	0.00281
397	0.0124
396.5	0.00692
396	0.0183
395.5	0.00755
395	0.00051
394.5	0.00456
394	0.00106
393.5	0.01337
393	0.01414
392.5	0.01453
392	0.01422
391.5	0.00968
391	0.00587
390.5	0.01554
390	0.00183
389.5	0.02207
389	0.00141
388.5	0.02056
388	0.01089
387.5	0.01582
387	0.00067
386.5	0.01087
386	0.00413
385.5	0.01614
385	0.00446
384.5	0.00216
384	0.00385
383.5	0.00279
383	0.01265
382.5	0.02523
382	0.00309
381.5	0.00059
381	0.005
380.5	0
380	0.01085
379.5	0.00994
379	0.02578
378.5	0.02609
378	0.01953
377.5	0.0061
377	0.00352
376.5	0.00513
376	0.00543
375.5	0.01642
375	0.0074
374.5	0.00187
374	0.00948
373.5	0.03449
373	0.00363
372.5	0.02087
372	0.0082
371.5	0.02687
371	0.00483
370.5	0.01986
370	0.02419
369.5	0.00269
369	0.00068
368.5	0.0007
368	0.00017
367.5	0.00237
367	0.00121
366.5	0.00031
366	0.00132
365.5	0.00131
365	0.00053
364.5	0.00204
364	0.00264
363.5	0.00401
363	0.00081
362.5	8E-05
362	0.00049
361.5	0.00039
361	0.00117
360.5	0.00428
360	0.0031
359.5	0.00395
359	0.00017
358.5	0.00532
358	2E-05
357.5	0.00027
357	0.00016
356.5	0.0002
356	0.00018
355.5	0
355	0.00413
354.5	0.00027
354	0.00225
353.5	0.00249
353	0.00535
352.5	0.00392
352	0.00349
351.5	0.00438
351	0.0011
350.5	0.00192
350	0.00383
349.5	0.00118
349	0.00055
348.5	0.00025
348	0.00258
347.5	0.00548
347	0.00564
346.5	0.00224
346	0.00149
345.5	0.00258
345	0.00223
344.5	0.00026
344	0.00097
343.5	0.00154
343	0.00396
342.5	0.0035
342	0.00158
341.5	0.00073
341	0.00086
340.5	0.0012
340	0.00198
339.5	0.00439
339	0.00428
338.5	0.00396
338	0.00116
337.5	0.00181
337	0.00105
336.5	0.00209
336	0.00756
335.5	0.00122
335	0.0001
334.5	0.00223
334	0.00491
333.5	0.00315
333	0.00169
332.5	0.00029
332	0.00026
331.5	0.00132
331	0.00522
330.5	0.0054
330	0.00258
329.5	0.00077
329	0.00234
328.5	0.00122
328	0.00422
327.5	0.00227
327	0.00399
326.5	0.00124
326	0.00651
325.5	0.00192
325	0.00592
324.5	0.00421
324	0.00434
323.5	5E-05
323	0.00471
322.5	0.00414
322	0.00217
321.5	0.00508
321	0.00046
320.5	0.01058
320	0.00522
319.5	0.00238
319	0.00595
318.5	0.00685
318	0.00174
317.5	0.01355
317	0.00185
316.5	0.00568
316	0.00442
315.5	0.00083
315	0.00239
314.5	0.0027
314	0.00633
313.5	0.01158
313	0.00888
312.5	0.01808
312	0.00146
311.5	0.00349
311	0.00725
310.5	0.01488
310	0.00642
309.5	0.02641
309	0.02104
308.5	0.05239
308	0.02155
307.5	0.02181
307	0.10986
306.5	0.05399
306	0.03304
305.5	0.06267
305	0.08386
304.5	0.10519
304	0.08275
303.5	0.0287
303	0.33037
302.5	0.67155
302	0.33906
301.5	0.73663
301	0.96058
300.5	0.17323
300	0.53818
