# Wavelength[nm]	T% at AOI 5 deg
1200.0 	52.2585
1199.9 	52.5659
1199.8 	52.87331
1199.7 	53.18071
1199.6 	53.48849
1199.5 	53.7959
1199.4 	54.13374
1199.3 	54.47158
1199.2 	54.80941
1199.1 	55.14766
1199.0 	55.4855
1198.9 	55.86419
1198.8 	56.24288
1198.7 	56.62156
1198.6 	57.00071
1198.5 	57.3794
1198.4 	57.79756
1198.3 	58.21572
1198.2 	58.63388
1198.1 	59.05254
1198.0 	59.4707
1197.9 	59.91457
1197.8 	60.35844
1197.7 	60.80231
1197.6 	61.24673
1197.5 	61.6906
1197.4 	62.13213
1197.3 	62.57367
1197.2 	63.0152
1197.1 	63.45727
1197.0 	63.8988
1196.9 	64.40152
1196.8 	64.90424
1196.7 	65.40695
1196.6 	65.91028
1196.5 	66.41299
1196.4 	66.88046
1196.3 	67.34793
1196.2 	67.8154
1196.1 	68.28343
1196.0 	68.7509
1195.9 	69.29485
1195.8 	69.83879
1195.7 	70.38274
1195.6 	70.92735
1195.5 	71.4713
1195.4 	72.00771
1195.3 	72.54411
1195.2 	73.08053
1195.1 	73.61759
1195.0 	74.154
1194.9 	74.60705
1194.8 	75.0601
1194.7 	75.51315
1194.6 	75.96675
1194.5 	76.4198
1194.4 	76.93595
1194.3 	77.45211
1194.2 	77.96826
1194.1 	78.48505
1194.0 	79.0012
1193.9 	79.45147
1193.8 	79.90174
1193.7 	80.35201
1193.6 	80.80283
1193.5 	81.2531
1193.4 	81.65154
1193.3 	82.04998
1193.2 	82.44843
1193.1 	82.84736
1193.0 	83.2458
1192.9 	83.62755
1192.8 	84.00929
1192.7 	84.39104
1192.6 	84.77325
1192.5 	85.155
1192.4 	85.41885
1192.3 	85.68271
1192.2 	85.94656
1192.1 	86.21074
1192.0 	86.47459
1191.9 	86.68436
1191.8 	86.89413
1191.7 	87.1039
1191.6 	87.31393
1191.5 	87.5237
1191.4 	87.62186
1191.3 	87.72002
1191.2 	87.81817
1191.1 	87.91644
1191.0 	88.0146
1190.9 	87.96592
1190.8 	87.91724
1190.7 	87.86854
1190.6 	87.81979
1190.5 	87.77111
1190.4 	87.62189
1190.3 	87.47266
1190.2 	87.32343
1190.1 	87.17403
1190.0 	87.0248
1189.9 	86.75363
1189.8 	86.48245
1189.7 	86.21128
1189.6 	85.93977
1189.5 	85.6686
1189.4 	85.25468
1189.3 	84.84076
1189.2 	84.42684
1189.1 	84.01242
1189.0 	83.5985
1188.9 	83.00822
1188.8 	82.41795
1188.7 	81.82767
1188.6 	81.23668
1188.5 	80.6464
1188.4 	79.96517
1188.3 	79.28394
1188.2 	78.6027
1188.1 	77.92063
1188.0 	77.2394
1187.9 	76.36879
1187.8 	75.49818
1187.7 	74.62758
1187.6 	73.75591
1187.5 	72.8853
1187.4 	71.95779
1187.3 	71.03027
1187.2 	70.10276
1187.1 	69.17411
1187.0 	68.2466
1186.9 	67.22578
1186.8 	66.20498
1186.7 	65.18417
1186.6 	64.16211
1186.5 	63.1413
1186.4 	62.0733
1186.3 	61.0053
1186.2 	59.93731
1186.1 	58.868
1186.0 	57.8
1185.9 	56.70247
1185.8 	55.60493
1185.7 	54.5074
1185.6 	53.40853
1185.5 	52.311
1185.4 	51.2162
1185.3 	50.12141
1185.2 	49.02662
1185.1 	47.93049
1185.0 	46.8357
1184.9 	45.77682
1184.8 	44.71794
1184.7 	43.65905
1184.6 	42.59888
1184.5 	41.54
1184.4 	40.54388
1184.3 	39.54776
1184.2 	38.55165
1184.1 	37.55431
1184.0 	36.5582
1183.9 	35.61091
1183.8 	34.66362
1183.7 	33.71633
1183.6 	32.76789
1183.5 	31.8206
1183.4 	30.99026
1183.3 	30.15993
1183.2 	29.32959
1183.1 	28.49824
1183.0 	27.6679
1182.9 	26.92198
1182.8 	26.17607
1182.7 	25.43015
1182.6 	24.68332
1182.5 	23.9374
1182.4 	23.27696
1182.3 	22.61652
1182.2 	21.95608
1182.1 	21.29484
1182.0 	20.6344
1181.9 	20.05164
1181.8 	19.46888
1181.7 	18.88613
1181.6 	18.30266
1181.5 	17.7199
1181.4 	17.22142
1181.3 	16.72294
1181.2 	16.22447
1181.1 	15.72538
1181.0 	15.2269
1180.9 	14.8023
1180.8 	14.37771
1180.7 	13.95311
1180.6 	13.528
1180.5 	13.1034
1180.4 	12.74391
1180.3 	12.38442
1180.2 	12.02492
1180.1 	11.66499
1180.0 	11.3055
1179.9 	10.99551
1179.8 	10.68553
1179.7 	10.37554
1179.6 	10.06518
1179.5 	9.75519
1179.4 	9.50084
1179.3 	9.24649
1179.2 	8.99214
1179.1 	8.73748
1179.0 	8.48313
1178.9 	8.26586
1178.8 	8.04858
1178.7 	7.83131
1178.6 	7.61377
1178.5 	7.3965
1178.4 	7.21267
1178.3 	7.02884
1178.2 	6.84501
1178.1 	6.66096
1178.0 	6.47713
1177.9 	6.32338
1177.8 	6.16963
1177.7 	6.01587
1177.6 	5.86193
1177.5 	5.70818
1177.4 	5.57592
1177.3 	5.44366
1177.2 	5.3114
1177.1 	5.17898
1177.0 	5.04672
1176.9 	4.93342
1176.8 	4.82012
1176.7 	4.70683
1176.6 	4.59339
1176.5 	4.48009
1176.4 	4.38501
1176.3 	4.28992
1176.2 	4.19484
1176.1 	4.09964
1176.0 	4.00455
1175.9 	3.92325
1175.8 	3.84195
1175.7 	3.76064
1175.6 	3.67924
1175.5 	3.59794
1175.4 	3.52877
1175.3 	3.4596
1175.2 	3.39043
1175.1 	3.32118
1175.0 	3.25201
1174.9 	3.19169
1174.8 	3.13137
1174.7 	3.07105
1174.6 	3.01066
1174.5 	2.95034
1174.4 	2.89949
1174.3 	2.84864
1174.2 	2.79779
1174.1 	2.74688
1174.0 	2.69603
1173.9 	2.65162
1173.8 	2.60721
1173.7 	2.5628
1173.6 	2.51833
1173.5 	2.47392
1173.4 	2.43521
1173.3 	2.3965
1173.2 	2.35779
1173.1 	2.31903
1173.0 	2.28032
1172.9 	2.24698
1172.8 	2.21365
1172.7 	2.18031
1172.6 	2.14694
1172.5 	2.1136
1172.4 	2.08421
1172.3 	2.05482
1172.2 	2.02543
1172.1 	1.996
1172.0 	1.96661
1171.9 	1.94163
1171.8 	1.91665
1171.7 	1.89168
1171.6 	1.86667
1171.5 	1.84169
1171.4 	1.81981
1171.3 	1.79792
1171.2 	1.77604
1171.1 	1.75413
1171.0 	1.73224
1170.9 	1.7135
1170.8 	1.69477
1170.7 	1.67603
1170.6 	1.65727
1170.5 	1.63853
1170.4 	1.6218
1170.3 	1.60507
1170.2 	1.58833
1170.1 	1.57158
1170.0 	1.55485
1169.9 	1.5407
1169.8 	1.52655
1169.7 	1.5124
1169.6 	1.49824
1169.5 	1.48409
1169.4 	1.47152
1169.3 	1.45894
1169.2 	1.44637
1169.1 	1.43378
1169.0 	1.4212
1168.9 	1.41027
1168.8 	1.39934
1168.7 	1.38841
1168.6 	1.37747
1168.5 	1.36654
1168.4 	1.35754
1168.3 	1.34853
1168.2 	1.33953
1168.1 	1.33051
1168.0 	1.32151
1167.9 	1.3133
1167.8 	1.30509
1167.7 	1.29689
1167.6 	1.28867
1167.5 	1.28046
1167.4 	1.27406
1167.3 	1.26766
1167.2 	1.26127
1167.1 	1.25486
1167.0 	1.24846
1166.9 	1.24355
1166.8 	1.23863
1166.7 	1.23372
1166.6 	1.2288
1166.5 	1.22388
1166.4 	1.21868
1166.3 	1.21348
1166.2 	1.20827
1166.1 	1.20306
1166.0 	1.19786
1165.9 	1.194
1165.8 	1.19014
1165.7 	1.18628
1165.6 	1.18241
1165.5 	1.17855
1165.4 	1.17541
1165.3 	1.17226
1165.2 	1.16911
1165.1 	1.16597
1165.0 	1.16282
1164.9 	1.16016
1164.8 	1.15751
1164.7 	1.15485
1164.6 	1.15219
1164.5 	1.14953
1164.4 	1.1474
1164.3 	1.14527
1164.2 	1.14314
1164.1 	1.141
1164.0 	1.13887
1163.9 	1.13652
1163.8 	1.13417
1163.7 	1.13182
1163.6 	1.12946
1163.5 	1.12711
1163.4 	1.12598
1163.3 	1.12485
1163.2 	1.12372
1163.1 	1.12259
1163.0 	1.12146
1162.9 	1.11914
1162.8 	1.11683
1162.7 	1.11451
1162.6 	1.11219
1162.5 	1.10987
1162.4 	1.10747
1162.3 	1.10507
1162.2 	1.10267
1162.1 	1.10026
1162.0 	1.09786
1161.9 	1.09568
1161.8 	1.09351
1161.7 	1.09133
1161.6 	1.08915
1161.5 	1.08697
1161.4 	1.08387
1161.3 	1.08076
1161.2 	1.07765
1161.1 	1.07455
1161.0 	1.07144
1160.9 	1.06687
1160.8 	1.0623
1160.7 	1.05773
1160.6 	1.05315
1160.5 	1.04858
1160.4 	1.04408
1160.3 	1.03958
1160.2 	1.03508
1160.1 	1.03058
1160.0 	1.02608
1159.9 	1.02011
1159.8 	1.01414
1159.7 	1.00816
1159.6 	1.00218
1159.5 	0.99621
1159.4 	0.98867
1159.3 	0.98114
1159.2 	0.9736
1159.1 	0.96606
1159.0 	0.95852
1158.9 	0.95104
1158.8 	0.94357
1158.7 	0.93609
1158.6 	0.9286
1158.5 	0.92112
1158.4 	0.91222
1158.3 	0.90331
1158.2 	0.8944
1158.1 	0.88549
1158.0 	0.87658
1157.9 	0.8669
1157.8 	0.85722
1157.7 	0.84754
1157.6 	0.83785
1157.5 	0.82817
1157.4 	0.81779
1157.3 	0.80741
1157.2 	0.79703
1157.1 	0.78664
1157.0 	0.77626
1156.9 	0.7657
1156.8 	0.75513
1156.7 	0.74456
1156.6 	0.73398
1156.5 	0.72342
1156.4 	0.71245
1156.3 	0.70148
1156.2 	0.69052
1156.1 	0.67954
1156.0 	0.66857
1155.9 	0.65774
1155.8 	0.64691
1155.7 	0.63608
1155.6 	0.62523
1155.5 	0.6144
1155.4 	0.60376
1155.3 	0.59312
1155.2 	0.58248
1155.1 	0.57183
1155.0 	0.56119
1154.9 	0.55121
1154.8 	0.54124
1154.7 	0.53126
1154.6 	0.52127
1154.5 	0.51129
1154.4 	0.50206
1154.3 	0.49282
1154.2 	0.48359
1154.1 	0.47434
1154.0 	0.46511
1153.9 	0.45629
1153.8 	0.44746
1153.7 	0.43864
1153.6 	0.42981
1153.5 	0.42098
1153.4 	0.41157
1153.3 	0.40215
1153.2 	0.39274
1153.1 	0.38331
1153.0 	0.3739
1152.9 	0.36677
1152.8 	0.35964
1152.7 	0.35252
1152.6 	0.34538
1152.5 	0.33826
1152.4 	0.33084
1152.3 	0.32343
1152.2 	0.31601
1152.1 	0.30859
1152.0 	0.30117
1151.9 	0.29523
1151.8 	0.28929
1151.7 	0.28336
1151.6 	0.27741
1151.5 	0.27147
1151.4 	0.26564
1151.3 	0.2598
1151.2 	0.25397
1151.1 	0.24813
1151.0 	0.2423
1150.9 	0.23774
1150.8 	0.23319
1150.7 	0.22864
1150.6 	0.22408
1150.5 	0.21953
1150.4 	0.21446
1150.3 	0.20939
1150.2 	0.20432
1150.1 	0.19925
1150.0 	0.19418
1149.9 	0.19027
1149.8 	0.18635
1149.7 	0.18244
1149.6 	0.17852
1149.5 	0.17461
1149.4 	0.17093
1149.3 	0.16726
1149.2 	0.16359
1149.1 	0.15992
1149.0 	0.15625
1148.9 	0.15263
1148.8 	0.14901
1148.7 	0.14539
1148.6 	0.14177
1148.5 	0.13816
1148.4 	0.13542
1148.3 	0.13269
1148.2 	0.12996
1148.1 	0.12722
1148.0 	0.12449
1147.9 	0.12179
1147.8 	0.11909
1147.7 	0.11639
1147.6 	0.11368
1147.5 	0.11098
1147.4 	0.10872
1147.3 	0.10647
1147.2 	0.10421
1147.1 	0.10195
1147.0 	0.0997
1146.9 	0.09747
1146.8 	0.09525
1146.7 	0.09302
1146.6 	0.0908
1146.5 	0.08857
1146.4 	0.08661
1146.3 	0.08465
1146.2 	0.0827
1146.1 	0.08074
1146.0 	0.07878
1145.9 	0.07742
1145.8 	0.07607
1145.7 	0.07471
1145.6 	0.07336
1145.5 	0.072
1145.4 	0.07035
1145.3 	0.0687
1145.2 	0.06705
1145.1 	0.06539
1145.0 	0.06374
1144.9 	0.06258
1144.8 	0.06142
1144.7 	0.06026
1144.6 	0.0591
1144.5 	0.05794
1144.4 	0.05658
1144.3 	0.05522
1144.2 	0.05387
1144.1 	0.05251
1144.0 	0.05115
1143.9 	0.04987
1143.8 	0.0486
1143.7 	0.04732
1143.6 	0.04604
1143.5 	0.04477
1143.4 	0.04422
1143.3 	0.04368
1143.2 	0.04314
1143.1 	0.04259
1143.0 	0.04205
1142.9 	0.04092
1142.8 	0.0398
1142.7 	0.03868
1142.6 	0.03756
1142.5 	0.03643
1142.4 	0.0357
1142.3 	0.03497
1142.2 	0.03424
1142.1 	0.03351
1142.0 	0.03278
1141.9 	0.03246
1141.8 	0.03213
1141.7 	0.0318
1141.6 	0.03147
1141.5 	0.03115
1141.4 	0.03018
1141.3 	0.02921
1141.2 	0.02825
1141.1 	0.02728
1141.0 	0.02631
1140.9 	0.02576
1140.8 	0.02521
1140.7 	0.02467
1140.6 	0.02412
1140.5 	0.02357
1140.4 	0.02302
1140.3 	0.02246
1140.2 	0.02191
1140.1 	0.02136
1140.0 	0.02081
1139.9 	0.02033
1139.8 	0.01984
1139.7 	0.01936
1139.6 	0.01887
1139.5 	0.01839
1139.4 	0.01837
1139.3 	0.01835
1139.2 	0.01833
1139.1 	0.0183
1139.0 	0.01828
1138.9 	0.01796
1138.8 	0.01763
1138.7 	0.01731
1138.6 	0.01699
1138.5 	0.01666
1138.4 	0.01603
1138.3 	0.01539
1138.2 	0.01476
1138.1 	0.01412
1138.0 	0.01349
1137.9 	0.01353
1137.8 	0.01357
1137.7 	0.01362
1137.6 	0.01366
1137.5 	0.0137
1137.4 	0.01308
1137.3 	0.01245
1137.2 	0.01183
1137.1 	0.01121
1137.0 	0.01058
1136.9 	0.01083
1136.8 	0.01109
1136.7 	0.01134
1136.6 	0.01159
1136.5 	0.01185
1136.4 	0.01157
1136.3 	0.01129
1136.2 	0.01101
1136.1 	0.01073
1136.0 	0.01045
1135.9 	0.01009
1135.8 	0.00972
1135.7 	0.00936
1135.6 	0.00899
1135.5 	0.00863
1135.4 	0.00846
1135.3 	0.00829
1135.2 	0.00812
1135.1 	0.00795
1135.0 	0.00778
1134.9 	0.00779
1134.8 	0.0078
1134.7 	0.00781
1134.6 	0.00782
1134.5 	0.00784
1134.4 	0.00752
1134.3 	0.0072
1134.2 	0.00688
1134.1 	0.00656
1134.0 	0.00624
1133.9 	0.00626
1133.8 	0.00628
1133.7 	0.0063
1133.6 	0.00632
1133.5 	0.00634
1133.4 	0.00623
1133.3 	0.00611
1133.2 	0.006
1133.1 	0.00589
1133.0 	0.00578
1132.9 	0.00574
1132.8 	0.0057
1132.7 	0.00566
1132.6 	0.00563
1132.5 	0.00559
1132.4 	0.00517
1132.3 	0.00476
1132.2 	0.00434
1132.1 	0.00393
1132.0 	0.00352
1131.9 	0.00349
1131.8 	0.00347
1131.7 	0.00345
1131.6 	0.00343
1131.5 	0.00341
1131.4 	0.00356
1131.3 	0.00372
1131.2 	0.00387
1131.1 	0.00403
1131.0 	0.00419
1130.9 	0.00393
1130.8 	0.00367
1130.7 	0.00341
1130.6 	0.00315
1130.5 	0.0029
1130.4 	0.00301
1130.3 	0.00312
1130.2 	0.00323
1130.1 	0.00334
1130.0 	0.00346
1129.9 	0.00341
1129.8 	0.00336
1129.7 	0.0033
1129.6 	0.00325
1129.5 	0.0032
1129.4 	0.00321
1129.3 	0.00321
1129.2 	0.00322
1129.1 	0.00323
1129.0 	0.00323
1128.9 	0.00321
1128.8 	0.0032
1128.7 	0.00318
1128.6 	0.00316
1128.5 	0.00314
1128.4 	0.00296
1128.3 	0.00278
1128.2 	0.0026
1128.1 	0.00242
1128.0 	0.00225
1127.9 	0.00247
1127.8 	0.00269
1127.7 	0.00291
1127.6 	0.00313
1127.5 	0.00336
1127.4 	0.00288
1127.3 	0.0024
1127.2 	0.00192
1127.1 	0.00144
1127.0 	0.00097
1126.9 	0.00118
1126.8 	0.0014
1126.7 	0.00162
1126.6 	0.00183
1126.5 	0.00205
1126.4 	0.00182
1126.3 	0.00159
1126.2 	0.00136
1126.1 	0.00112
1126.0 	0.00089
1125.9 	0.00107
1125.8 	0.00124
1125.7 	0.00141
1125.6 	0.00159
1125.5 	0.00176
1125.4 	0.00176
1125.3 	0.00176
1125.2 	0.00176
1125.1 	0.00176
1125.0 	0.00177
1124.9 	0.00199
1124.8 	0.00221
1124.7 	0.00243
1124.6 	0.00265
1124.5 	0.00288
1124.4 	0.00236
1124.3 	0.00184
1124.2 	0.00132
1124.1 	0.00081
1124.0 	0.00029
1123.9 	0.00052
1123.8 	0.00075
1123.7 	0.00099
1123.6 	0.00122
1123.5 	0.00145
1123.4 	0.0012
1123.3 	0.00094
1123.2 	0.00068
1123.1 	0.00043
1123.0 	0.00017
1122.9 	0.00028
1122.8 	0.0004
1122.7 	0.00052
1122.6 	0.00063
1122.5 	0.00075
1122.4 	0.00076
1122.3 	0.00077
1122.2 	0.00078
1122.1 	0.00079
1122.0 	0.00079
1121.9 	0.00067
1121.8 	0.00055
1121.7 	0.00043
1121.6 	0.00031
1121.5 	0.00019
1121.4 	0.00047
1121.3 	0.00074
1121.2 	0.00101
1121.1 	0.00128
1121.0 	0.00156
1120.9 	0.00172
1120.8 	0.00189
1120.7 	0.00206
1120.6 	0.00222
1120.5 	0.00239
1120.4 	0.00197
1120.3 	0.00156
1120.2 	0.00114
1120.1 	0.00072
1120.0 	0.00031
1119.9 	0.0004
1119.8 	0.00049
1119.7 	0.00058
1119.6 	0.00067
1119.5 	0.00076
1119.4 	0.00061
1119.3 	0.00046
1119.2 	0.00032
1119.1 	0.00017
1119.0 	2E-05
1118.9 	0.0003
1118.8 	0.00057
1118.7 	0.00084
1118.6 	0.00112
1118.5 	0.00139
1118.4 	0.00153
1118.3 	0.00167
1118.2 	0.00182
1118.1 	0.00196
1118.0 	0.0021
1117.9 	0.0019
1117.8 	0.00171
1117.7 	0.00152
1117.6 	0.00132
1117.5 	0.00113
1117.4 	0.00134
1117.3 	0.00156
1117.2 	0.00177
1117.1 	0.00199
1117.0 	0.0022
1116.9 	0.00182
1116.8 	0.00144
1116.7 	0.00106
1116.6 	0.00068
1116.5 	0.0003
1116.4 	0.0004
1116.3 	0.0005
1116.2 	0.0006
1116.1 	0.00069
1116.0 	0.00079
1115.9 	0.00108
1115.8 	0.00137
1115.7 	0.00166
1115.6 	0.00195
1115.5 	0.00223
1115.4 	0.00218
1115.3 	0.00213
1115.2 	0.00208
1115.1 	0.00203
1115.0 	0.00197
1114.9 	0.00207
1114.8 	0.00216
1114.7 	0.00226
1114.6 	0.00235
1114.5 	0.00245
1114.4 	0.00246
1114.3 	0.00248
1114.2 	0.00249
1114.1 	0.0025
1114.0 	0.00251
1113.9 	0.0022
1113.8 	0.00188
1113.7 	0.00156
1113.6 	0.00124
1113.5 	0.00092
1113.4 	0.001
1113.3 	0.00109
1113.2 	0.00117
1113.1 	0.00125
1113.0 	0.00133
1112.9 	0.00121
1112.8 	0.00109
1112.7 	0.00097
1112.6 	0.00085
1112.5 	0.00074
1112.4 	0.00098
1112.3 	0.00123
1112.2 	0.00148
1112.1 	0.00172
1112.0 	0.00197
1111.9 	0.00197
1111.8 	0.00197
1111.7 	0.00197
1111.6 	0.00197
1111.5 	0.00197
1111.4 	0.0018
1111.3 	0.00163
1111.2 	0.00146
1111.1 	0.00129
1111.0 	0.00112
1110.9 	0.00154
1110.8 	0.00197
1110.7 	0.00239
1110.6 	0.00282
1110.5 	0.00324
1110.4 	0.00283
1110.3 	0.00243
1110.2 	0.00202
1110.1 	0.00161
1110.0 	0.00121
1109.9 	0.00164
1109.8 	0.00207
1109.7 	0.0025
1109.6 	0.00294
1109.5 	0.00337
1109.4 	0.0034
1109.3 	0.00343
1109.2 	0.00346
1109.1 	0.00349
1109.0 	0.00352
1108.9 	0.0036
1108.8 	0.00367
1108.7 	0.00375
1108.6 	0.00383
1108.5 	0.00391
1108.4 	0.00386
1108.3 	0.00381
1108.2 	0.00377
1108.1 	0.00372
1108.0 	0.00367
1107.9 	0.00334
1107.8 	0.00301
1107.7 	0.00268
1107.6 	0.00235
1107.5 	0.00202
1107.4 	0.00215
1107.3 	0.00228
1107.2 	0.00241
1107.1 	0.00254
1107.0 	0.00267
1106.9 	0.00236
1106.8 	0.00206
1106.7 	0.00175
1106.6 	0.00144
1106.5 	0.00113
1106.4 	0.00187
1106.3 	0.00262
1106.2 	0.00336
1106.1 	0.00411
1106.0 	0.00485
1105.9 	0.00465
1105.8 	0.00444
1105.7 	0.00424
1105.6 	0.00404
1105.5 	0.00383
1105.4 	0.00396
1105.3 	0.00409
1105.2 	0.00422
1105.1 	0.00435
1105.0 	0.00449
1104.9 	0.00456
1104.8 	0.00464
1104.7 	0.00471
1104.6 	0.00479
1104.5 	0.00486
1104.4 	0.00477
1104.3 	0.00468
1104.2 	0.00459
1104.1 	0.0045
1104.0 	0.00441
1103.9 	0.00447
1103.8 	0.00453
1103.7 	0.00459
1103.6 	0.00465
1103.5 	0.00472
1103.4 	0.00495
1103.3 	0.00518
1103.2 	0.00541
1103.1 	0.00565
1103.0 	0.00588
1102.9 	0.00592
1102.8 	0.00595
1102.7 	0.00599
1102.6 	0.00603
1102.5 	0.00607
1102.4 	0.00583
1102.3 	0.00559
1102.2 	0.00534
1102.1 	0.0051
1102.0 	0.00486
1101.9 	0.00498
1101.8 	0.0051
1101.7 	0.00522
1101.6 	0.00534
1101.5 	0.00546
1101.4 	0.00504
1101.3 	0.00461
1101.2 	0.00419
1101.1 	0.00377
1101.0 	0.00335
1100.9 	0.00361
1100.8 	0.00386
1100.7 	0.00411
1100.6 	0.00437
1100.5 	0.00462
1100.4 	0.00473
1100.3 	0.00483
1100.2 	0.00494
1100.1 	0.00505
1100.0 	0.00515
1099.9 	0.00484
1099.8 	0.00454
1099.7 	0.00423
1099.6 	0.00392
1099.5 	0.00361
1099.4 	0.0039
1099.3 	0.0042
1099.2 	0.00449
1099.1 	0.00478
1099.0 	0.00507
1098.9 	0.0048
1098.8 	0.00453
1098.7 	0.00425
1098.6 	0.00398
1098.5 	0.00371
1098.4 	0.00365
1098.3 	0.00358
1098.2 	0.00352
1098.1 	0.00346
1098.0 	0.0034
1097.9 	0.00309
1097.8 	0.00278
1097.7 	0.00248
1097.6 	0.00217
1097.5 	0.00186
1097.4 	0.00214
1097.3 	0.00242
1097.2 	0.0027
1097.1 	0.00298
1097.0 	0.00326
1096.9 	0.00332
1096.8 	0.00339
1096.7 	0.00345
1096.6 	0.00352
1096.5 	0.00359
1096.4 	0.00331
1096.3 	0.00304
1096.2 	0.00276
1096.1 	0.00248
1096.0 	0.00221
1095.9 	0.00188
1095.8 	0.00155
1095.7 	0.00121
1095.6 	0.00088
1095.5 	0.00055
1095.4 	0.00105
1095.3 	0.00154
1095.2 	0.00204
1095.1 	0.00253
1095.0 	0.00302
1094.9 	0.00281
1094.8 	0.00259
1094.7 	0.00237
1094.6 	0.00216
1094.5 	0.00194
1094.4 	0.0019
1094.3 	0.00186
1094.2 	0.00182
1094.1 	0.00178
1094.0 	0.00174
1093.9 	0.0014
1093.8 	0.00106
1093.7 	0.00072
1093.6 	0.00038
1093.5 	4E-05
1093.4 	0.00027
1093.3 	0.00049
1093.2 	0.00072
1093.1 	0.00094
1093.0 	0.00116
1092.9 	0.00128
1092.8 	0.00139
1092.7 	0.0015
1092.6 	0.00162
1092.5 	0.00173
1092.4 	0.00141
1092.3 	0.00108
1092.2 	0.00076
1092.1 	0.00043
1092.0 	0.00011
1091.9 	0.00033
1091.8 	0.00056
1091.7 	0.00078
1091.6 	0.001
1091.5 	0.00123
1091.4 	0.00127
1091.3 	0.0013
1091.2 	0.00134
1091.1 	0.00138
1091.0 	0.00142
1090.9 	0.00116
1090.8 	0.00091
1090.7 	0.00065
1090.6 	0.00039
1090.5 	0.00013
1090.4 	0.00027
1090.3 	0.00042
1090.2 	0.00056
1090.1 	0.00071
1090.0 	0.00085
1089.9 	0.00094
1089.8 	0.00103
1089.7 	0.00112
1089.6 	0.00122
1089.5 	0.00131
1089.4 	0.00127
1089.3 	0.00123
1089.2 	0.00119
1089.1 	0.00115
1089.0 	0.00111
1088.9 	0.00117
1088.8 	0.00122
1088.7 	0.00128
1088.6 	0.00134
1088.5 	0.00139
1088.4 	0.00114
1088.3 	0.00088
1088.2 	0.00062
1088.1 	0.00036
1088.0 	0.00011
1087.9 	0.0001
1087.8 	8E-05
1087.7 	7E-05
1087.6 	6E-05
1087.5 	4E-05
1087.4 	0.0001
1087.3 	0.00016
1087.2 	0.00022
1087.1 	0.00029
1087.0 	0.00035
1086.9 	0.00031
1086.8 	0.00027
1086.7 	0.00023
1086.6 	0.00019
1086.5 	0.00015
1086.4 	0.00026
1086.3 	0.00038
1086.2 	0.00049
1086.1 	0.0006
1086.0 	0.00071
1085.9 	0.00061
1085.8 	0.00051
1085.7 	0.0004
1085.6 	0.0003
1085.5 	0.00019
1085.4 	0.00059
1085.3 	0.00098
1085.2 	0.00137
1085.1 	0.00177
1085.0 	0.00216
1084.9 	0.00191
1084.8 	0.00166
1084.7 	0.00141
1084.6 	0.00116
1084.5 	0.00091
1084.4 	0.00083
1084.3 	0.00076
1084.2 	0.00069
1084.1 	0.00061
1084.0 	0.00054
1083.9 	0.00052
1083.8 	0.0005
1083.7 	0.00047
1083.6 	0.00045
1083.5 	0.00043
1083.4 	0.00052
1083.3 	0.0006
1083.2 	0.00069
1083.1 	0.00077
1083.0 	0.00086
1082.9 	0.00072
1082.8 	0.00058
1082.7 	0.00043
1082.6 	0.00029
1082.5 	0.00015
1082.4 	0.00022
1082.3 	0.0003
1082.2 	0.00037
1082.1 	0.00044
1082.0 	0.00052
1081.9 	0.00071
1081.8 	0.00091
1081.7 	0.00111
1081.6 	0.0013
1081.5 	0.0015
1081.4 	0.00138
1081.3 	0.00125
1081.2 	0.00113
1081.1 	0.001
1081.0 	0.00088
1080.9 	0.00089
1080.8 	0.00089
1080.7 	0.0009
1080.6 	0.00091
1080.5 	0.00092
1080.4 	0.00087
1080.3 	0.00083
1080.2 	0.00078
1080.1 	0.00073
1080.0 	0.00069
1079.9 	0.001
1079.8 	0.00131
1079.7 	0.00162
1079.6 	0.00193
1079.5 	0.00225
1079.4 	0.0019
1079.3 	0.00156
1079.2 	0.00122
1079.1 	0.00088
1079.0 	0.00053
1078.9 	0.00058
1078.8 	0.00063
1078.7 	0.00067
1078.6 	0.00072
1078.5 	0.00077
1078.4 	0.00078
1078.3 	0.00078
1078.2 	0.00079
1078.1 	0.0008
1078.0 	0.00081
1077.9 	0.00098
1077.8 	0.00115
1077.7 	0.00132
1077.6 	0.00149
1077.5 	0.00166
1077.4 	0.00187
1077.3 	0.00208
1077.2 	0.0023
1077.1 	0.00251
1077.0 	0.00272
1076.9 	0.0022
1076.8 	0.00168
1076.7 	0.00116
1076.6 	0.00065
1076.5 	0.00013
1076.4 	0.00025
1076.3 	0.00036
1076.2 	0.00048
1076.1 	0.0006
1076.0 	0.00072
1075.9 	0.00078
1075.8 	0.00083
1075.7 	0.00089
1075.6 	0.00094
1075.5 	0.001
1075.4 	0.00114
1075.3 	0.00129
1075.2 	0.00144
1075.1 	0.00159
1075.0 	0.00173
1074.9 	0.00143
1074.8 	0.00112
1074.7 	0.00081
1074.6 	0.0005
1074.5 	0.00019
1074.4 	0.00016
1074.3 	0.00014
1074.2 	0.00011
1074.1 	9E-05
1074.0 	6E-05
1073.9 	0.00031
1073.8 	0.00056
1073.7 	0.00081
1073.6 	0.00106
1073.5 	0.00131
1073.4 	0.00157
1073.3 	0.00184
1073.2 	0.0021
1073.1 	0.00237
1073.0 	0.00264
1072.9 	0.00215
1072.8 	0.00167
1072.7 	0.00118
1072.6 	0.0007
1072.5 	0.00021
1072.4 	0.00029
1072.3 	0.00036
1072.2 	0.00044
1072.1 	0.00051
1072.0 	0.00059
1071.9 	0.00064
1071.8 	0.00069
1071.7 	0.00074
1071.6 	0.00079
1071.5 	0.00084
1071.4 	0.00093
1071.3 	0.00103
1071.2 	0.00112
1071.1 	0.00121
1071.0 	0.0013
1070.9 	0.00109
1070.8 	0.00088
1070.7 	0.00067
1070.6 	0.00046
1070.5 	0.00025
1070.4 	0.00031
1070.3 	0.00038
1070.2 	0.00044
1070.1 	0.0005
1070.0 	0.00057
1069.9 	0.00054
1069.8 	0.00051
1069.7 	0.00048
1069.6 	0.00045
1069.5 	0.00042
1069.4 	0.00075
1069.3 	0.00108
1069.2 	0.00141
1069.1 	0.00174
1069.0 	0.00207
1068.9 	0.00191
1068.8 	0.00175
1068.7 	0.00158
1068.6 	0.00142
1068.5 	0.00126
1068.4 	0.00122
1068.3 	0.00118
1068.2 	0.00114
1068.1 	0.0011
1068.0 	0.00106
1067.9 	0.00095
1067.8 	0.00084
1067.7 	0.00073
1067.6 	0.00061
1067.5 	0.0005
1067.4 	0.00078
1067.3 	0.00107
1067.2 	0.00135
1067.1 	0.00164
1067.0 	0.00192
1066.9 	0.00158
1066.8 	0.00124
1066.7 	0.0009
1066.6 	0.00057
1066.5 	0.00023
1066.4 	0.00034
1066.3 	0.00045
1066.2 	0.00057
1066.1 	0.00068
1066.0 	0.00079
1065.9 	0.00073
1065.8 	0.00067
1065.7 	0.00061
1065.6 	0.00056
1065.5 	0.0005
1065.4 	0.00083
1065.3 	0.00115
1065.2 	0.00148
1065.1 	0.00181
1065.0 	0.00214
1064.9 	0.00173
1064.8 	0.00132
1064.7 	0.0009
1064.6 	0.00049
1064.5 	8E-05
1064.4 	0.00026
1064.3 	0.00044
1064.2 	0.00062
1064.1 	0.00079
1064.0 	0.00097
1063.9 	0.00102
1063.8 	0.00106
1063.7 	0.00111
1063.6 	0.00115
1063.5 	0.0012
1063.4 	0.00097
1063.3 	0.00074
1063.2 	0.00052
1063.1 	0.00029
1063.0 	6E-05
1062.9 	0.00014
1062.8 	0.00021
1062.7 	0.00028
1062.6 	0.00036
1062.5 	0.00043
1062.4 	0.00058
1062.3 	0.00073
1062.2 	0.00087
1062.1 	0.00102
1062.0 	0.00117
1061.9 	0.00108
1061.8 	0.00099
1061.7 	0.0009
1061.6 	0.00081
1061.5 	0.00072
1061.4 	0.00066
1061.3 	0.0006
1061.2 	0.00055
1061.1 	0.00049
1061.0 	0.00043
1060.9 	0.00041
1060.8 	0.00038
1060.7 	0.00036
1060.6 	0.00033
1060.5 	0.00031
1060.4 	0.00031
1060.3 	0.00031
1060.2 	0.00032
1060.1 	0.00032
1060.0 	0.00033
1059.9 	0.00057
1059.8 	0.00081
1059.7 	0.00105
1059.6 	0.00129
1059.5 	0.00153
1059.4 	0.00127
1059.3 	0.00102
1059.2 	0.00076
1059.1 	0.0005
1059.0 	0.00024
1058.9 	0.00034
1058.8 	0.00043
1058.7 	0.00052
1058.6 	0.00062
1058.5 	0.00071
1058.4 	0.00061
1058.3 	0.00051
1058.2 	0.00041
1058.1 	0.0003
1058.0 	0.0002
1057.9 	0.00045
1057.8 	0.0007
1057.7 	0.00094
1057.6 	0.00119
1057.5 	0.00144
1057.4 	0.00129
1057.3 	0.00115
1057.2 	0.001
1057.1 	0.00085
1057.0 	0.00071
1056.9 	0.00074
1056.8 	0.00078
1056.7 	0.00082
1056.6 	0.00085
1056.5 	0.00089
1056.4 	0.00072
1056.3 	0.00054
1056.2 	0.00037
1056.1 	0.00019
1056.0 	2E-05
1055.9 	0.0002
1055.8 	0.00038
1055.7 	0.00055
1055.6 	0.00073
1055.5 	0.00091
1055.4 	0.00085
1055.3 	0.00079
1055.2 	0.00073
1055.1 	0.00066
1055.0 	0.0006
1054.9 	0.00064
1054.8 	0.00068
1054.7 	0.00071
1054.6 	0.00075
1054.5 	0.00078
1054.4 	0.00134
1054.3 	0.0019
1054.2 	0.00246
1054.1 	0.00302
1054.0 	0.00358
1053.9 	0.00355
1053.8 	0.00352
1053.7 	0.00349
1053.6 	0.00346
1053.5 	0.00343
1053.4 	0.00338
1053.3 	0.00332
1053.2 	0.00326
1053.1 	0.00321
1053.0 	0.00315
1052.9 	0.00348
1052.8 	0.0038
1052.7 	0.00413
1052.6 	0.00446
1052.5 	0.00478
1052.4 	0.00478
1052.3 	0.00478
1052.2 	0.00478
1052.1 	0.00478
1052.0 	0.00478
1051.9 	0.00452
1051.8 	0.00427
1051.7 	0.00401
1051.6 	0.00376
1051.5 	0.0035
1051.4 	0.00369
1051.3 	0.00387
1051.2 	0.00406
1051.1 	0.00425
1051.0 	0.00443
1050.9 	0.00428
1050.8 	0.00412
1050.7 	0.00397
1050.6 	0.00381
1050.5 	0.00365
1050.4 	0.0035
1050.3 	0.00335
1050.2 	0.0032
1050.1 	0.00304
1050.0 	0.00289
1049.9 	0.00294
1049.8 	0.00299
1049.7 	0.00305
1049.6 	0.0031
1049.5 	0.00315
1049.4 	0.00359
1049.3 	0.00404
1049.2 	0.00448
1049.1 	0.00492
1049.0 	0.00537
1048.9 	0.00473
1048.8 	0.0041
1048.7 	0.00346
1048.6 	0.00282
1048.5 	0.00219
1048.4 	0.00204
1048.3 	0.00189
1048.2 	0.00174
1048.1 	0.0016
1048.0 	0.00145
1047.9 	0.00192
1047.8 	0.00238
1047.7 	0.00285
1047.6 	0.00332
1047.5 	0.00379
1047.4 	0.00332
1047.3 	0.00286
1047.2 	0.0024
1047.1 	0.00193
1047.0 	0.00147
1046.9 	0.00153
1046.8 	0.00159
1046.7 	0.00165
1046.6 	0.0017
1046.5 	0.00176
1046.4 	0.00154
1046.3 	0.00131
1046.2 	0.00109
1046.1 	0.00086
1046.0 	0.00063
1045.9 	0.00067
1045.8 	0.0007
1045.7 	0.00074
1045.6 	0.00078
1045.5 	0.00081
1045.4 	0.00094
1045.3 	0.00107
1045.2 	0.0012
1045.1 	0.00133
1045.0 	0.00146
1044.9 	0.00127
1044.8 	0.00107
1044.7 	0.00087
1044.6 	0.00067
1044.5 	0.00047
1044.4 	0.00067
1044.3 	0.00086
1044.2 	0.00105
1044.1 	0.00125
1044.0 	0.00144
1043.9 	0.00129
1043.8 	0.00113
1043.7 	0.00098
1043.6 	0.00082
1043.5 	0.00067
1043.4 	0.00059
1043.3 	0.0005
1043.2 	0.00042
1043.1 	0.00034
1043.0 	0.00026
1042.9 	0.00035
1042.8 	0.00044
1042.7 	0.00054
1042.6 	0.00063
1042.5 	0.00073
1042.4 	0.00092
1042.3 	0.00111
1042.2 	0.00129
1042.1 	0.00148
1042.0 	0.00167
1041.9 	0.0017
1041.8 	0.00173
1041.7 	0.00177
1041.6 	0.0018
1041.5 	0.00183
1041.4 	0.00155
1041.3 	0.00126
1041.2 	0.00098
1041.1 	0.0007
1041.0 	0.00041
1040.9 	0.00037
1040.8 	0.00033
1040.7 	0.00028
1040.6 	0.00024
1040.5 	0.0002
1040.4 	0.00035
1040.3 	0.0005
1040.2 	0.00066
1040.1 	0.00081
1040.0 	0.00096
1039.9 	0.00115
1039.8 	0.00135
1039.7 	0.00154
1039.6 	0.00173
1039.5 	0.00192
1039.4 	0.0017
1039.3 	0.00147
1039.2 	0.00124
1039.1 	0.00101
1039.0 	0.00078
1038.9 	0.00064
1038.8 	0.0005
1038.7 	0.00036
1038.6 	0.00022
1038.5 	8E-05
1038.4 	0.00025
1038.3 	0.00042
1038.2 	0.0006
1038.1 	0.00077
1038.0 	0.00094
1037.9 	0.00095
1037.8 	0.00096
1037.7 	0.00098
1037.6 	0.00099
1037.5 	0.001
1037.4 	0.00087
1037.3 	0.00073
1037.2 	0.0006
1037.1 	0.00047
1037.0 	0.00033
1036.9 	0.00061
1036.8 	0.00088
1036.7 	0.00115
1036.6 	0.00143
1036.5 	0.0017
1036.4 	0.00152
1036.3 	0.00134
1036.2 	0.00116
1036.1 	0.00098
1036.0 	0.0008
1035.9 	0.00094
1035.8 	0.00107
1035.7 	0.00121
1035.6 	0.00135
1035.5 	0.00149
1035.4 	0.00172
1035.3 	0.00195
1035.2 	0.00218
1035.1 	0.00241
1035.0 	0.00264
1034.9 	0.00228
1034.8 	0.00192
1034.7 	0.00156
1034.6 	0.0012
1034.5 	0.00084
1034.4 	0.00068
1034.3 	0.00052
1034.2 	0.00036
1034.1 	0.0002
1034.0 	4E-05
1033.9 	0.00043
1033.8 	0.00081
1033.7 	0.0012
1033.6 	0.00159
1033.5 	0.00197
1033.4 	0.0017
1033.3 	0.00143
1033.2 	0.00116
1033.1 	0.00089
1033.0 	0.00063
1032.9 	0.00052
1032.8 	0.00042
1032.7 	0.00032
1032.6 	0.00022
1032.5 	0.00012
1032.4 	0.00049
1032.3 	0.00087
1032.2 	0.00124
1032.1 	0.00162
1032.0 	0.00199
1031.9 	0.00163
1031.8 	0.00127
1031.7 	0.0009
1031.6 	0.00054
1031.5 	0.00018
1031.4 	0.00047
1031.3 	0.00076
1031.2 	0.00105
1031.1 	0.00135
1031.0 	0.00164
1030.9 	0.00144
1030.8 	0.00123
1030.7 	0.00103
1030.6 	0.00083
1030.5 	0.00062
1030.4 	0.00069
1030.3 	0.00075
1030.2 	0.00081
1030.1 	0.00087
1030.0 	0.00094
1029.9 	0.00083
1029.8 	0.00072
1029.7 	0.00061
1029.6 	0.0005
1029.5 	0.00039
1029.4 	0.00056
1029.3 	0.00073
1029.2 	0.00091
1029.1 	0.00108
1029.0 	0.00125
1028.9 	0.00114
1028.8 	0.00102
1028.7 	0.00091
1028.6 	0.0008
1028.5 	0.00068
1028.4 	0.00068
1028.3 	0.00068
1028.2 	0.00068
1028.1 	0.00068
1028.0 	0.00068
1027.9 	0.00064
1027.8 	0.00059
1027.7 	0.00054
1027.6 	0.0005
1027.5 	0.00045
1027.4 	0.00089
1027.3 	0.00132
1027.2 	0.00176
1027.1 	0.0022
1027.0 	0.00264
1026.9 	0.00232
1026.8 	0.002
1026.7 	0.00168
1026.6 	0.00136
1026.5 	0.00104
1026.4 	0.00139
1026.3 	0.00174
1026.2 	0.00209
1026.1 	0.00244
1026.0 	0.00279
1025.9 	0.00249
1025.8 	0.00218
1025.7 	0.00188
1025.6 	0.00157
1025.5 	0.00127
1025.4 	0.00119
1025.3 	0.00112
1025.2 	0.00105
1025.1 	0.00097
1025.0 	0.0009
1024.9 	0.00087
1024.8 	0.00083
1024.7 	0.0008
1024.6 	0.00077
1024.5 	0.00074
1024.4 	0.00082
1024.3 	0.00091
1024.2 	0.00099
1024.1 	0.00107
1024.0 	0.00115
1023.9 	0.00119
1023.8 	0.00122
1023.7 	0.00126
1023.6 	0.00129
1023.5 	0.00133
1023.4 	0.00141
1023.3 	0.00149
1023.2 	0.00157
1023.1 	0.00166
1023.0 	0.00174
1022.9 	0.00163
1022.8 	0.00151
1022.7 	0.0014
1022.6 	0.00129
1022.5 	0.00117
1022.4 	0.00112
1022.3 	0.00106
1022.2 	0.00101
1022.1 	0.00095
1022.0 	0.0009
1021.9 	0.00075
1021.8 	0.00061
1021.7 	0.00046
1021.6 	0.00032
1021.5 	0.00018
1021.4 	0.0004
1021.3 	0.00062
1021.2 	0.00084
1021.1 	0.00107
1021.0 	0.00129
1020.9 	0.00105
1020.8 	0.00081
1020.7 	0.00056
1020.6 	0.00032
1020.5 	8E-05
1020.4 	0.00062
1020.3 	0.00116
1020.2 	0.0017
1020.1 	0.00224
1020.0 	0.00278
1019.9 	0.00226
1019.8 	0.00175
1019.7 	0.00123
1019.6 	0.00071
1019.5 	0.0002
1019.4 	0.00066
1019.3 	0.00113
1019.2 	0.0016
1019.1 	0.00206
1019.0 	0.00253
1018.9 	0.0022
1018.8 	0.00186
1018.7 	0.00153
1018.6 	0.0012
1018.5 	0.00086
1018.4 	0.00098
1018.3 	0.00109
1018.2 	0.0012
1018.1 	0.00132
1018.0 	0.00143
1017.9 	0.00138
1017.8 	0.00133
1017.7 	0.00128
1017.6 	0.00123
1017.5 	0.00118
1017.4 	0.00124
1017.3 	0.0013
1017.2 	0.00137
1017.1 	0.00143
1017.0 	0.00149
1016.9 	0.00124
1016.8 	0.00098
1016.7 	0.00073
1016.6 	0.00047
1016.5 	0.00022
1016.4 	0.00022
1016.3 	0.00022
1016.2 	0.00023
1016.1 	0.00023
1016.0 	0.00024
1015.9 	0.0002
1015.8 	0.00017
1015.7 	0.00014
1015.6 	0.00011
1015.5 	8E-05
1015.4 	0.00027
1015.3 	0.00047
1015.2 	0.00067
1015.1 	0.00087
1015.0 	0.00106
1014.9 	0.00104
1014.8 	0.00102
1014.7 	0.001
1014.6 	0.00098
1014.5 	0.00097
1014.4 	0.00115
1014.3 	0.00133
1014.2 	0.00151
1014.1 	0.00169
1014.0 	0.00187
1013.9 	0.00175
1013.8 	0.00163
1013.7 	0.00151
1013.6 	0.00138
1013.5 	0.00126
1013.4 	0.00105
1013.3 	0.00084
1013.2 	0.00062
1013.1 	0.00041
1013.0 	0.0002
1012.9 	0.00034
1012.8 	0.00047
1012.7 	0.00061
1012.6 	0.00075
1012.5 	0.00089
1012.4 	0.00084
1012.3 	0.00079
1012.2 	0.00074
1012.1 	0.00068
1012.0 	0.00063
1011.9 	0.00074
1011.8 	0.00084
1011.7 	0.00094
1011.6 	0.00104
1011.5 	0.00115
1011.4 	0.00105
1011.3 	0.00096
1011.2 	0.00086
1011.1 	0.00077
1011.0 	0.00067
1010.9 	0.00065
1010.8 	0.00062
1010.7 	0.00059
1010.6 	0.00056
1010.5 	0.00054
1010.4 	0.00059
1010.3 	0.00065
1010.2 	0.00071
1010.1 	0.00077
1010.0 	0.00083
1009.9 	0.0009
1009.8 	0.00098
1009.7 	0.00105
1009.6 	0.00112
1009.5 	0.00119
1009.4 	0.00099
1009.3 	0.00079
1009.2 	0.00058
1009.1 	0.00038
1009.0 	0.00018
1008.9 	0.00051
1008.8 	0.00085
1008.7 	0.00118
1008.6 	0.00152
1008.5 	0.00185
1008.4 	0.00152
1008.3 	0.0012
1008.2 	0.00087
1008.1 	0.00055
1008.0 	0.00022
1007.9 	0.00043
1007.8 	0.00065
1007.7 	0.00087
1007.6 	0.00108
1007.5 	0.0013
1007.4 	0.00116
1007.3 	0.00103
1007.2 	0.00089
1007.1 	0.00075
1007.0 	0.00062
1006.9 	0.00062
1006.8 	0.00062
1006.7 	0.00062
1006.6 	0.00062
1006.5 	0.00062
1006.4 	0.0006
1006.3 	0.00058
1006.2 	0.00056
1006.1 	0.00054
1006.0 	0.00052
1005.9 	0.00045
1005.8 	0.00038
1005.7 	0.0003
1005.6 	0.00023
1005.5 	0.00016
1005.4 	0.0003
1005.3 	0.00044
1005.2 	0.00058
1005.1 	0.00072
1005.0 	0.00086
1004.9 	0.00114
1004.8 	0.00143
1004.7 	0.00171
1004.6 	0.00199
1004.5 	0.00227
1004.4 	0.00195
1004.3 	0.00163
1004.2 	0.00132
1004.1 	0.001
1004.0 	0.00068
1003.9 	0.00069
1003.8 	0.00069
1003.7 	0.0007
1003.6 	0.0007
1003.5 	0.00071
1003.4 	0.0008
1003.3 	0.00089
1003.2 	0.00098
1003.1 	0.00108
1003.0 	0.00117
1002.9 	0.00096
1002.8 	0.00074
1002.7 	0.00053
1002.6 	0.00031
1002.5 	0.0001
1002.4 	0.00018
1002.3 	0.00025
1002.2 	0.00033
1002.1 	0.00041
1002.0 	0.00049
1001.9 	0.00059
1001.8 	0.0007
1001.7 	0.0008
1001.6 	0.00091
1001.5 	0.00101
1001.4 	0.00096
1001.3 	0.00091
1001.2 	0.00087
1001.1 	0.00082
1001.0 	0.00077
1000.9 	0.00083
1000.8 	0.0009
1000.7 	0.00097
1000.6 	0.00103
1000.5 	0.0011
1000.4 	0.00093
1000.3 	0.00076
1000.2 	0.00059
1000.1 	0.00041
1000.0 	0.00024
999.9 	0.00053
999.8 	0.00081
999.7 	0.0011
999.6 	0.00138
999.5 	0.00167
999.4 	0.00159
999.3 	0.00152
999.2 	0.00145
999.1 	0.00138
999.0 	0.0013
998.9 	0.00154
998.8 	0.00177
998.7 	0.002
998.6 	0.00224
998.5 	0.00247
998.4 	0.00225
998.3 	0.00202
998.2 	0.0018
998.1 	0.00157
998.0 	0.00135
997.9 	0.00159
997.8 	0.00183
997.7 	0.00206
997.6 	0.0023
997.5 	0.00254
997.4 	0.00248
997.3 	0.00242
997.2 	0.00236
997.1 	0.0023
997.0 	0.00224
996.9 	0.00195
996.8 	0.00165
996.7 	0.00136
996.6 	0.00107
996.5 	0.00078
996.4 	0.00072
996.3 	0.00067
996.2 	0.00061
996.1 	0.00055
996.0 	0.00049
995.9 	0.00041
995.8 	0.00033
995.7 	0.00025
995.6 	0.00016
995.5 	8E-05
995.4 	0.00023
995.3 	0.00037
995.2 	0.00052
995.1 	0.00066
995.0 	0.00081
994.9 	0.001
994.8 	0.0012
994.7 	0.00139
994.6 	0.00159
994.5 	0.00178
994.4 	0.00152
994.3 	0.00126
994.2 	0.001
994.1 	0.00074
994.0 	0.00048
993.9 	0.00058
993.8 	0.00068
993.7 	0.00078
993.6 	0.00088
993.5 	0.00098
993.4 	0.00089
993.3 	0.0008
993.2 	0.00072
993.1 	0.00063
993.0 	0.00054
992.9 	0.00074
992.8 	0.00094
992.7 	0.00114
992.6 	0.00134
992.5 	0.00154
992.4 	0.00164
992.3 	0.00175
992.2 	0.00185
992.1 	0.00195
992.0 	0.00205
991.9 	0.00186
991.8 	0.00166
991.7 	0.00147
991.6 	0.00128
991.5 	0.00109
991.4 	0.00132
991.3 	0.00155
991.2 	0.00178
991.1 	0.00202
991.0 	0.00225
990.9 	0.0019
990.8 	0.00155
990.7 	0.0012
990.6 	0.00085
990.5 	0.00051
990.4 	0.00057
990.3 	0.00063
990.2 	0.0007
990.1 	0.00076
990.0 	0.00082
989.9 	0.00092
989.8 	0.00102
989.7 	0.00112
989.6 	0.00121
989.5 	0.00131
989.4 	0.0011
989.3 	0.00088
989.2 	0.00067
989.1 	0.00045
989.0 	0.00023
988.9 	0.00075
988.8 	0.00126
988.7 	0.00178
988.6 	0.00229
988.5 	0.00281
988.4 	0.00247
988.3 	0.00213
988.2 	0.00179
988.1 	0.00145
988.0 	0.00111
987.9 	0.00092
987.8 	0.00072
987.7 	0.00053
987.6 	0.00034
987.5 	0.00015
987.4 	0.00051
987.3 	0.00087
987.2 	0.00123
987.1 	0.00159
987.0 	0.00195
986.9 	0.0018
986.8 	0.00166
986.7 	0.00151
986.6 	0.00137
986.5 	0.00122
986.4 	0.00123
986.3 	0.00123
986.2 	0.00123
986.1 	0.00123
986.0 	0.00123
985.9 	0.00136
985.8 	0.0015
985.7 	0.00163
985.6 	0.00176
985.5 	0.0019
985.4 	0.00173
985.3 	0.00155
985.2 	0.00138
985.1 	0.00121
985.0 	0.00104
984.9 	0.00105
984.8 	0.00107
984.7 	0.00108
984.6 	0.00109
984.5 	0.00111
984.4 	0.00126
984.3 	0.0014
984.2 	0.00155
984.1 	0.0017
984.0 	0.00185
983.9 	0.00153
983.8 	0.00121
983.7 	0.0009
983.6 	0.00058
983.5 	0.00026
983.4 	0.00027
983.3 	0.00028
983.2 	0.00029
983.1 	0.0003
983.0 	0.00031
982.9 	0.0008
982.8 	0.00129
982.7 	0.00178
982.6 	0.00228
982.5 	0.00277
982.4 	0.00264
982.3 	0.00251
982.2 	0.00238
982.1 	0.00224
982.0 	0.00211
981.9 	0.00193
981.8 	0.00175
981.7 	0.00156
981.6 	0.00138
981.5 	0.00119
981.4 	0.00123
981.3 	0.00127
981.2 	0.00131
981.1 	0.00135
981.0 	0.0014
980.9 	0.00141
980.8 	0.00142
980.7 	0.00143
980.6 	0.00144
980.5 	0.00145
980.4 	0.00137
980.3 	0.0013
980.2 	0.00122
980.1 	0.00114
980.0 	0.00107
979.9 	0.00115
979.8 	0.00124
979.7 	0.00133
979.6 	0.00141
979.5 	0.0015
979.4 	0.00136
979.3 	0.00123
979.2 	0.0011
979.1 	0.00096
979.0 	0.00083
978.9 	0.00107
978.8 	0.00132
978.7 	0.00156
978.6 	0.00181
978.5 	0.00205
978.4 	0.00201
978.3 	0.00197
978.2 	0.00193
978.1 	0.00189
978.0 	0.00186
977.9 	0.0019
977.8 	0.00194
977.7 	0.00198
977.6 	0.00202
977.5 	0.00206
977.4 	0.00174
977.3 	0.00141
977.2 	0.00108
977.1 	0.00076
977.0 	0.00043
976.9 	0.00038
976.8 	0.00033
976.7 	0.00028
976.6 	0.00023
976.5 	0.00018
976.4 	0.00062
976.3 	0.00106
976.2 	0.0015
976.1 	0.00195
976.0 	0.00239
975.9 	0.00209
975.8 	0.00179
975.7 	0.00149
975.6 	0.00119
975.5 	0.0009
975.4 	0.00092
975.3 	0.00095
975.2 	0.00098
975.1 	0.00101
975.0 	0.00104
974.9 	0.00106
974.8 	0.00109
974.7 	0.00111
974.6 	0.00113
974.5 	0.00116
974.4 	0.00148
974.3 	0.00179
974.2 	0.00211
974.1 	0.00243
974.0 	0.00275
973.9 	0.00226
973.8 	0.00178
973.7 	0.00129
973.6 	0.00081
973.5 	0.00033
973.4 	0.00041
973.3 	0.0005
973.2 	0.00058
973.1 	0.00067
973.0 	0.00075
972.9 	0.00078
972.8 	0.00081
972.7 	0.00084
972.6 	0.00086
972.5 	0.00089
972.4 	0.00075
972.3 	0.00061
972.2 	0.00047
972.1 	0.00033
972.0 	0.00019
971.9 	0.0002
971.8 	0.00022
971.7 	0.00023
971.6 	0.00025
971.5 	0.00026
971.4 	0.00048
971.3 	0.0007
971.2 	0.00092
971.1 	0.00113
971.0 	0.00135
970.9 	0.00123
970.8 	0.0011
970.7 	0.00097
970.6 	0.00084
970.5 	0.00072
970.4 	0.00074
970.3 	0.00076
970.2 	0.00079
970.1 	0.00081
970.0 	0.00084
969.9 	0.0012
969.8 	0.00157
969.7 	0.00194
969.6 	0.0023
969.5 	0.00267
969.4 	0.00256
969.3 	0.00244
969.2 	0.00233
969.1 	0.00221
969.0 	0.0021
968.9 	0.00176
968.8 	0.00143
968.7 	0.00109
968.6 	0.00075
968.5 	0.00041
968.4 	0.00078
968.3 	0.00114
968.2 	0.00151
968.1 	0.00188
968.0 	0.00224
967.9 	0.00213
967.8 	0.00201
967.7 	0.00189
967.6 	0.00178
967.5 	0.00166
967.4 	0.00189
967.3 	0.00211
967.2 	0.00233
967.1 	0.00256
967.0 	0.00278
966.9 	0.00259
966.8 	0.0024
966.7 	0.00221
966.6 	0.00202
966.5 	0.00183
966.4 	0.00172
966.3 	0.0016
966.2 	0.00149
966.1 	0.00138
966.0 	0.00127
965.9 	0.00158
965.8 	0.00189
965.7 	0.0022
965.6 	0.00251
965.5 	0.00282
965.4 	0.00254
965.3 	0.00226
965.2 	0.00198
965.1 	0.00171
965.0 	0.00143
964.9 	0.00118
964.8 	0.00094
964.7 	0.00069
964.6 	0.00045
964.5 	0.0002
964.4 	0.00051
964.3 	0.00083
964.2 	0.00114
964.1 	0.00145
964.0 	0.00177
963.9 	0.00185
963.8 	0.00193
963.7 	0.00202
963.6 	0.0021
963.5 	0.00219
963.4 	0.002
963.3 	0.00182
963.2 	0.00164
963.1 	0.00146
963.0 	0.00128
962.9 	0.0011
962.8 	0.00093
962.7 	0.00076
962.6 	0.00058
962.5 	0.00041
962.4 	0.00067
962.3 	0.00094
962.2 	0.0012
962.1 	0.00146
962.0 	0.00173
961.9 	0.00152
961.8 	0.00131
961.7 	0.00109
961.6 	0.00088
961.5 	0.00067
961.4 	0.00087
961.3 	0.00107
961.2 	0.00127
961.1 	0.00147
961.0 	0.00167
960.9 	0.00158
960.8 	0.0015
960.7 	0.00142
960.6 	0.00134
960.5 	0.00126
960.4 	0.00131
960.3 	0.00136
960.2 	0.00142
960.1 	0.00147
960.0 	0.00153
959.9 	0.00143
959.8 	0.00134
959.7 	0.00125
959.6 	0.00115
959.5 	0.00106
959.4 	0.00112
959.3 	0.00118
959.2 	0.00124
959.1 	0.0013
959.0 	0.00136
958.9 	0.00117
958.8 	0.00098
958.7 	0.0008
958.6 	0.00061
958.5 	0.00043
958.4 	0.00064
958.3 	0.00085
958.2 	0.00106
958.1 	0.00127
958.0 	0.00148
957.9 	0.00125
957.8 	0.00103
957.7 	0.0008
957.6 	0.00058
957.5 	0.00035
957.4 	0.00043
957.3 	0.0005
957.2 	0.00058
957.1 	0.00066
957.0 	0.00073
956.9 	0.00082
956.8 	0.00091
956.7 	0.001
956.6 	0.00109
956.5 	0.00118
956.4 	0.00095
956.3 	0.00072
956.2 	0.00049
956.1 	0.00026
956.0 	3E-05
955.9 	0.00024
955.8 	0.00045
955.7 	0.00066
955.6 	0.00087
955.5 	0.00108
955.4 	0.00096
955.3 	0.00084
955.2 	0.00072
955.1 	0.00059
955.0 	0.00047
954.9 	0.00051
954.8 	0.00054
954.7 	0.00057
954.6 	0.00061
954.5 	0.00064
954.4 	0.00071
954.3 	0.00077
954.2 	0.00083
954.1 	0.00089
954.0 	0.00096
953.9 	0.0008
953.8 	0.00064
953.7 	0.00048
953.6 	0.00033
953.5 	0.00017
953.4 	0.00021
953.3 	0.00025
953.2 	0.00029
953.1 	0.00033
953.0 	0.00037
952.9 	0.00032
952.8 	0.00028
952.7 	0.00023
952.6 	0.00019
952.5 	0.00014
952.4 	0.00017
952.3 	0.00019
952.2 	0.00021
952.1 	0.00024
952.0 	0.00026
951.9 	0.0007
951.8 	0.00113
951.7 	0.00157
951.6 	0.002
951.5 	0.00244
951.4 	0.00209
951.3 	0.00174
951.2 	0.0014
951.1 	0.00105
951.0 	0.0007
950.9 	0.0006
950.8 	0.00049
950.7 	0.00039
950.6 	0.00028
950.5 	0.00018
950.4 	0.00029
950.3 	0.00041
950.2 	0.00053
950.1 	0.00065
950.0 	0.00077
949.9 	0.00094
949.8 	0.00111
949.7 	0.00127
949.6 	0.00144
949.5 	0.00161
949.4 	0.00131
949.3 	0.001
949.2 	0.0007
949.1 	0.00039
949.0 	9E-05
948.9 	0.00011
948.8 	0.00013
948.7 	0.00014
948.6 	0.00016
948.5 	0.00018
948.4 	0.00018
948.3 	0.00017
948.2 	0.00016
948.1 	0.00016
948.0 	0.00015
947.9 	0.00015
947.8 	0.00014
947.7 	0.00013
947.6 	0.00013
947.5 	0.00012
947.4 	0.00014
947.3 	0.00016
947.2 	0.00018
947.1 	0.0002
947.0 	0.00022
946.9 	0.00074
946.8 	0.00126
946.7 	0.00178
946.6 	0.00231
946.5 	0.00283
946.4 	0.00228
946.3 	0.00172
946.2 	0.00117
946.1 	0.00062
946.0 	6E-05
945.9 	0.00018
945.8 	0.00029
945.7 	0.0004
945.6 	0.00052
945.5 	0.00063
945.4 	0.00096
945.3 	0.00128
945.2 	0.00161
945.1 	0.00194
945.0 	0.00226
944.9 	0.00205
944.8 	0.00183
944.7 	0.00162
944.6 	0.0014
944.5 	0.00119
944.4 	0.00133
944.3 	0.00148
944.2 	0.00162
944.1 	0.00177
944.0 	0.00191
943.9 	0.00161
943.8 	0.00131
943.7 	0.001
943.6 	0.0007
943.5 	0.00039
943.4 	0.00056
943.3 	0.00073
943.2 	0.00091
943.1 	0.00108
943.0 	0.00125
942.9 	0.00126
942.8 	0.00128
942.7 	0.00129
942.6 	0.00131
942.5 	0.00132
942.4 	0.00126
942.3 	0.00121
942.2 	0.00115
942.1 	0.00109
942.0 	0.00103
941.9 	0.00105
941.8 	0.00106
941.7 	0.00108
941.6 	0.00109
941.5 	0.00111
941.4 	0.00107
941.3 	0.00103
941.2 	0.00099
941.1 	0.00095
941.0 	0.00091
940.9 	0.00082
940.8 	0.00072
940.7 	0.00063
940.6 	0.00054
940.5 	0.00044
940.4 	0.00092
940.3 	0.00141
940.2 	0.00189
940.1 	0.00237
940.0 	0.00286
939.9 	0.00252
939.8 	0.00219
939.7 	0.00185
939.6 	0.00152
939.5 	0.00118
939.4 	0.00099
939.3 	0.0008
939.2 	0.00062
939.1 	0.00043
939.0 	0.00024
938.9 	0.00045
938.8 	0.00065
938.7 	0.00086
938.6 	0.00107
938.5 	0.00128
938.4 	0.00164
938.3 	0.002
938.2 	0.00235
938.1 	0.00271
938.0 	0.00307
937.9 	0.00249
937.8 	0.0019
937.7 	0.00131
937.6 	0.00073
937.5 	0.00014
937.4 	0.00025
937.3 	0.00036
937.2 	0.00046
937.1 	0.00057
937.0 	0.00068
936.9 	0.00062
936.8 	0.00057
936.7 	0.00051
936.6 	0.00045
936.5 	0.0004
936.4 	0.00085
936.3 	0.00131
936.2 	0.00176
936.1 	0.00221
936.0 	0.00267
935.9 	0.00233
935.8 	0.00199
935.7 	0.00164
935.6 	0.0013
935.5 	0.00096
935.4 	0.00104
935.3 	0.00112
935.2 	0.00119
935.1 	0.00127
935.0 	0.00135
934.9 	0.00109
934.8 	0.00084
934.7 	0.00058
934.6 	0.00033
934.5 	8E-05
934.4 	0.00023
934.3 	0.00038
934.2 	0.00053
934.1 	0.00069
934.0 	0.00084
933.9 	0.0011
933.8 	0.00137
933.7 	0.00163
933.6 	0.00189
933.5 	0.00216
933.4 	0.00197
933.3 	0.00178
933.2 	0.00159
933.1 	0.0014
933.0 	0.00121
932.9 	0.00099
932.8 	0.00077
932.7 	0.00055
932.6 	0.00034
932.5 	0.00012
932.4 	0.00043
932.3 	0.00074
932.2 	0.00105
932.1 	0.00135
932.0 	0.00166
931.9 	0.00142
931.8 	0.00117
931.7 	0.00093
931.6 	0.00068
931.5 	0.00044
931.4 	0.00042
931.3 	0.00041
931.2 	0.00039
931.1 	0.00038
931.0 	0.00036
930.9 	0.00033
930.8 	0.0003
930.7 	0.00027
930.6 	0.00024
930.5 	0.0002
930.4 	0.00056
930.3 	0.00091
930.2 	0.00127
930.1 	0.00163
930.0 	0.00198
929.9 	0.00191
929.8 	0.00184
929.7 	0.00177
929.6 	0.0017
929.5 	0.00163
929.4 	0.00149
929.3 	0.00135
929.2 	0.00121
929.1 	0.00107
929.0 	0.00093
928.9 	0.00076
928.8 	0.00059
928.7 	0.00042
928.6 	0.00025
928.5 	9E-05
928.4 	0.00027
928.3 	0.00045
928.2 	0.00063
928.1 	0.00081
928.0 	0.001
927.9 	0.00148
927.8 	0.00197
927.7 	0.00245
927.6 	0.00294
927.5 	0.00343
927.4 	0.00312
927.3 	0.00282
927.2 	0.00252
927.1 	0.00222
927.0 	0.00192
926.9 	0.00161
926.8 	0.00131
926.7 	0.00101
926.6 	0.00071
926.5 	0.00041
926.4 	0.00067
926.3 	0.00094
926.2 	0.0012
926.1 	0.00147
926.0 	0.00174
925.9 	0.00164
925.8 	0.00154
925.7 	0.00145
925.6 	0.00135
925.5 	0.00125
925.4 	0.0013
925.3 	0.00135
925.2 	0.0014
925.1 	0.00145
925.0 	0.00151
924.9 	0.00141
924.8 	0.00132
924.7 	0.00123
924.6 	0.00114
924.5 	0.00105
924.4 	0.00104
924.3 	0.00104
924.2 	0.00103
924.1 	0.00102
924.0 	0.00101
923.9 	0.00153
923.8 	0.00204
923.7 	0.00255
923.6 	0.00306
923.5 	0.00357
923.4 	0.003
923.3 	0.00244
923.2 	0.00187
923.1 	0.00131
923.0 	0.00074
922.9 	0.00088
922.8 	0.00101
922.7 	0.00114
922.6 	0.00127
922.5 	0.00141
922.4 	0.00128
922.3 	0.00115
922.2 	0.00102
922.1 	0.00089
922.0 	0.00076
921.9 	0.00099
921.8 	0.00122
921.7 	0.00145
921.6 	0.00168
921.5 	0.00191
921.4 	0.00166
921.3 	0.00142
921.2 	0.00117
921.1 	0.00092
921.0 	0.00068
920.9 	0.00088
920.8 	0.00108
920.7 	0.00129
920.6 	0.00149
920.5 	0.00169
920.4 	0.00196
920.3 	0.00224
920.2 	0.00251
920.1 	0.00278
920.0 	0.00305
919.9 	0.00273
919.8 	0.00242
919.7 	0.0021
919.6 	0.00178
919.5 	0.00146
919.4 	0.00164
919.3 	0.00182
919.2 	0.002
919.1 	0.00218
919.0 	0.00236
918.9 	0.0026
918.8 	0.00284
918.7 	0.00307
918.6 	0.00331
918.5 	0.00355
918.4 	0.00317
918.3 	0.00278
918.2 	0.0024
918.1 	0.00201
918.0 	0.00163
917.9 	0.00138
917.8 	0.00114
917.7 	0.00089
917.6 	0.00064
917.5 	0.0004
917.4 	0.00068
917.3 	0.00097
917.2 	0.00126
917.1 	0.00155
917.0 	0.00184
916.9 	0.00169
916.8 	0.00154
916.7 	0.0014
916.6 	0.00125
916.5 	0.00111
916.4 	0.00107
916.3 	0.00104
916.2 	0.00101
916.1 	0.00097
916.0 	0.00094
915.9 	0.00111
915.8 	0.00128
915.7 	0.00145
915.6 	0.00161
915.5 	0.00178
915.4 	0.00144
915.3 	0.00109
915.2 	0.00075
915.1 	0.0004
915.0 	6E-05
914.9 	0.00063
914.8 	0.0012
914.7 	0.00177
914.6 	0.00234
914.5 	0.00291
914.4 	0.00239
914.3 	0.00187
914.2 	0.00135
914.1 	0.00083
914.0 	0.00031
913.9 	0.00089
913.8 	0.00147
913.7 	0.00206
913.6 	0.00264
913.5 	0.00323
913.4 	0.00298
913.3 	0.00274
913.2 	0.00249
913.1 	0.00225
913.0 	0.002
912.9 	0.0018
912.8 	0.00161
912.7 	0.00141
912.6 	0.00121
912.5 	0.00101
912.4 	0.00122
912.3 	0.00142
912.2 	0.00163
912.1 	0.00184
912.0 	0.00204
911.9 	0.00167
911.8 	0.0013
911.7 	0.00093
911.6 	0.00056
911.5 	0.00019
911.4 	0.00021
911.3 	0.00022
911.2 	0.00023
911.1 	0.00025
911.0 	0.00026
910.9 	0.00026
910.8 	0.00026
910.7 	0.00026
910.6 	0.00026
910.5 	0.00026
910.4 	0.00034
910.3 	0.00042
910.2 	0.0005
910.1 	0.00058
910.0 	0.00066
909.9 	0.00081
909.8 	0.00096
909.7 	0.00111
909.6 	0.00125
909.5 	0.0014
909.4 	0.00114
909.3 	0.00087
909.2 	0.0006
909.1 	0.00033
909.0 	7E-05
908.9 	0.00019
908.8 	0.00031
908.7 	0.00043
908.6 	0.00056
908.5 	0.00068
908.4 	0.00087
908.3 	0.00106
908.2 	0.00126
908.1 	0.00145
908.0 	0.00164
907.9 	0.00141
907.8 	0.00118
907.7 	0.00094
907.6 	0.00071
907.5 	0.00048
907.4 	0.00054
907.3 	0.00059
907.2 	0.00065
907.1 	0.0007
907.0 	0.00076
906.9 	0.00071
906.8 	0.00065
906.7 	0.0006
906.6 	0.00054
906.5 	0.00049
906.4 	0.00092
906.3 	0.00136
906.2 	0.00179
906.1 	0.00222
906.0 	0.00266
905.9 	0.00252
905.8 	0.00238
905.7 	0.00224
905.6 	0.00211
905.5 	0.00197
905.4 	0.00215
905.3 	0.00234
905.2 	0.00253
905.1 	0.00271
905.0 	0.0029
904.9 	0.00279
904.8 	0.00268
904.7 	0.00257
904.6 	0.00245
904.5 	0.00234
904.4 	0.00212
904.3 	0.00189
904.2 	0.00166
904.1 	0.00144
904.0 	0.00121
903.9 	0.00104
903.8 	0.00087
903.7 	0.0007
903.6 	0.00053
903.5 	0.00036
903.4 	0.00084
903.3 	0.00131
903.2 	0.00179
903.1 	0.00227
903.0 	0.00275
902.9 	0.0025
902.8 	0.00226
902.7 	0.00202
902.6 	0.00177
902.5 	0.00153
902.4 	0.00209
902.3 	0.00265
902.2 	0.00321
902.1 	0.00377
902.0 	0.00433
901.9 	0.00386
901.8 	0.00339
901.7 	0.00293
901.6 	0.00246
901.5 	0.002
901.4 	0.00163
901.3 	0.00126
901.2 	0.00089
901.1 	0.00052
901.0 	0.00015
900.9 	0.00063
900.8 	0.00111
900.7 	0.00159
900.6 	0.00207
900.5 	0.00256
900.4 	0.00215
900.3 	0.00174
900.2 	0.00134
900.1 	0.00094
900.0 	0.00053
899.9 	0.00076
899.8 	0.00099
899.7 	0.00122
899.6 	0.00145
899.5 	0.00168
899.4 	0.00139
899.3 	0.0011
899.2 	0.00081
899.1 	0.00052
899.0 	0.00023
898.9 	0.00087
898.8 	0.0015
898.7 	0.00214
898.6 	0.00278
898.5 	0.00341
898.4 	0.003
898.3 	0.00258
898.2 	0.00216
898.1 	0.00175
898.0 	0.00133
897.9 	0.00187
897.8 	0.00241
897.7 	0.00295
897.6 	0.00349
897.5 	0.00403
897.4 	0.00409
897.3 	0.00416
897.2 	0.00423
897.1 	0.0043
897.0 	0.00437
896.9 	0.00383
896.8 	0.00329
896.7 	0.00276
896.6 	0.00222
896.5 	0.00168
896.4 	0.00152
896.3 	0.00136
896.2 	0.0012
896.1 	0.00105
896.0 	0.00089
895.9 	0.00117
895.8 	0.00144
895.7 	0.00172
895.6 	0.002
895.5 	0.00228
895.4 	0.00191
895.3 	0.00153
895.2 	0.00116
895.1 	0.00078
895.0 	0.00041
894.9 	0.00076
894.8 	0.00111
894.7 	0.00145
894.6 	0.0018
894.5 	0.00215
894.4 	0.0019
894.3 	0.00166
894.2 	0.00141
894.1 	0.00116
894.0 	0.00092
893.9 	0.0009
893.8 	0.00089
893.7 	0.00087
893.6 	0.00085
893.5 	0.00084
893.4 	0.00111
893.3 	0.00138
893.2 	0.00166
893.1 	0.00193
893.0 	0.0022
892.9 	0.00181
892.8 	0.00142
892.7 	0.00103
892.6 	0.00065
892.5 	0.00026
892.4 	0.00031
892.3 	0.00036
892.2 	0.00041
892.1 	0.00046
892.0 	0.00052
891.9 	0.00055
891.8 	0.00059
891.7 	0.00062
891.6 	0.00066
891.5 	0.0007
891.4 	0.00098
891.3 	0.00126
891.2 	0.00154
891.1 	0.00182
891.0 	0.0021
890.9 	0.00195
890.8 	0.00179
890.7 	0.00164
890.6 	0.00148
890.5 	0.00133
890.4 	0.0019
890.3 	0.00247
890.2 	0.00304
890.1 	0.00361
890.0 	0.00418
889.9 	0.00365
889.8 	0.00312
889.7 	0.00259
889.6 	0.00206
889.5 	0.00153
889.4 	0.00124
889.3 	0.00095
889.2 	0.00066
889.1 	0.00038
889.0 	9E-05
888.9 	0.0002
888.8 	0.00031
888.7 	0.00042
888.6 	0.00053
888.5 	0.00064
888.4 	0.00099
888.3 	0.00134
888.2 	0.00169
888.1 	0.00204
888.0 	0.00239
887.9 	0.00204
887.8 	0.0017
887.7 	0.00135
887.6 	0.001
887.5 	0.00065
887.4 	0.00056
887.3 	0.00046
887.2 	0.00037
887.1 	0.00028
887.0 	0.00019
886.9 	0.00064
886.8 	0.0011
886.7 	0.00155
886.6 	0.002
886.5 	0.00246
886.4 	0.00208
886.3 	0.0017
886.2 	0.00133
886.1 	0.00095
886.0 	0.00057
885.9 	0.001
885.8 	0.00142
885.7 	0.00184
885.6 	0.00227
885.5 	0.00269
885.4 	0.00249
885.3 	0.00228
885.2 	0.00207
885.1 	0.00186
885.0 	0.00165
884.9 	0.00202
884.8 	0.0024
884.7 	0.00277
884.6 	0.00314
884.5 	0.00352
884.4 	0.00307
884.3 	0.00262
884.2 	0.00218
884.1 	0.00173
884.0 	0.00128
883.9 	0.00148
883.8 	0.00168
883.7 	0.00188
883.6 	0.00209
883.5 	0.00229
883.4 	0.00241
883.3 	0.00254
883.2 	0.00266
883.1 	0.00279
883.0 	0.00291
882.9 	0.00241
882.8 	0.00191
882.7 	0.00141
882.6 	0.00091
882.5 	0.00041
882.4 	0.00122
882.3 	0.00204
882.2 	0.00286
882.1 	0.00368
882.0 	0.00449
881.9 	0.00388
881.8 	0.00327
881.7 	0.00266
881.6 	0.00205
881.5 	0.00144
881.4 	0.00118
881.3 	0.00091
881.2 	0.00064
881.1 	0.00037
881.0 	0.0001
880.9 	0.00071
880.8 	0.00132
880.7 	0.00193
880.6 	0.00254
880.5 	0.00315
880.4 	0.00292
880.3 	0.00269
880.2 	0.00247
880.1 	0.00224
880.0 	0.00201
879.9 	0.00176
879.8 	0.00151
879.7 	0.00125
879.6 	0.001
879.5 	0.00075
879.4 	0.00139
879.3 	0.00204
879.2 	0.00269
879.1 	0.00334
879.0 	0.00399
878.9 	0.00326
878.8 	0.00252
878.7 	0.00179
878.6 	0.00106
878.5 	0.00033
878.4 	0.00039
878.3 	0.00046
878.2 	0.00052
878.1 	0.00059
878.0 	0.00066
877.9 	0.00079
877.8 	0.00093
877.7 	0.00106
877.6 	0.00119
877.5 	0.00133
877.4 	0.00133
877.3 	0.00133
877.2 	0.00133
877.1 	0.00134
877.0 	0.00134
876.9 	0.00136
876.8 	0.00139
876.7 	0.00141
876.6 	0.00144
876.5 	0.00146
876.4 	0.00144
876.3 	0.00142
876.2 	0.0014
876.1 	0.00138
876.0 	0.00136
875.9 	0.00201
875.8 	0.00265
875.7 	0.00329
875.6 	0.00394
875.5 	0.00458
875.4 	0.00454
875.3 	0.00451
875.2 	0.00447
875.1 	0.00443
875.0 	0.00439
874.9 	0.00395
874.8 	0.00352
874.7 	0.00308
874.6 	0.00265
874.5 	0.00221
874.4 	0.00236
874.3 	0.0025
874.2 	0.00265
874.1 	0.00279
874.0 	0.00294
873.9 	0.0028
873.8 	0.00266
873.7 	0.00253
873.6 	0.00239
873.5 	0.00225
873.4 	0.00257
873.3 	0.00288
873.2 	0.0032
873.1 	0.00351
873.0 	0.00383
872.9 	0.00352
872.8 	0.00322
872.7 	0.00291
872.6 	0.0026
872.5 	0.0023
872.4 	0.00276
872.3 	0.00323
872.2 	0.0037
872.1 	0.00416
872.0 	0.00463
871.9 	0.00398
871.8 	0.00332
871.7 	0.00266
871.6 	0.00201
871.5 	0.00135
871.4 	0.00126
871.3 	0.00116
871.2 	0.00106
871.1 	0.00096
871.0 	0.00087
870.9 	0.00109
870.8 	0.00132
870.7 	0.00155
870.6 	0.00177
870.5 	0.002
870.4 	0.00188
870.3 	0.00176
870.2 	0.00163
870.1 	0.00151
870.0 	0.00139
869.9 	0.00198
869.8 	0.00257
869.7 	0.00315
869.6 	0.00374
869.5 	0.00433
869.4 	0.00457
869.3 	0.00481
869.2 	0.00505
869.1 	0.00529
869.0 	0.00553
868.9 	0.00541
868.8 	0.00529
868.7 	0.00517
868.6 	0.00505
868.5 	0.00493
868.4 	0.00408
868.3 	0.00322
868.2 	0.00237
868.1 	0.00151
868.0 	0.00066
867.9 	0.00089
867.8 	0.00113
867.7 	0.00137
867.6 	0.00161
867.5 	0.00185
867.4 	0.00153
867.3 	0.00122
867.2 	0.0009
867.1 	0.00058
867.0 	0.00027
866.9 	0.00045
866.8 	0.00064
866.7 	0.00083
866.6 	0.00102
866.5 	0.00121
866.4 	0.00113
866.3 	0.00105
866.2 	0.00097
866.1 	0.00089
866.0 	0.00082
865.9 	0.00073
865.8 	0.00065
865.7 	0.00057
865.6 	0.00049
865.5 	0.00041
865.4 	0.00036
865.3 	0.0003
865.2 	0.00025
865.1 	0.00019
865.0 	0.00014
864.9 	0.00086
864.8 	0.00158
864.7 	0.00231
864.6 	0.00303
864.5 	0.00375
864.4 	0.00354
864.3 	0.00332
864.2 	0.0031
864.1 	0.00288
864.0 	0.00266
863.9 	0.00258
863.8 	0.0025
863.7 	0.00242
863.6 	0.00234
863.5 	0.00227
863.4 	0.00213
863.3 	0.00199
863.2 	0.00185
863.1 	0.00171
863.0 	0.00157
862.9 	0.00137
862.8 	0.00117
862.7 	0.00097
862.6 	0.00077
862.5 	0.00058
862.4 	0.00081
862.3 	0.00104
862.2 	0.00128
862.1 	0.00151
862.0 	0.00174
861.9 	0.00198
861.8 	0.00222
861.7 	0.00245
861.6 	0.00269
861.5 	0.00293
861.4 	0.00447
861.3 	0.00602
861.2 	0.00756
861.1 	0.0091
861.0 	0.01065
860.9 	0.0087
860.8 	0.00674
860.7 	0.0048
860.6 	0.00285
860.5 	0.00089
860.4 	0.00201
860.3 	0.00312
860.2 	0.00424
860.1 	0.00535
860.0 	0.00647
859.9 	0.00605
859.8 	0.00564
859.7 	0.00522
859.6 	0.00481
859.5 	0.00439
859.4 	0.00422
859.3 	0.00404
859.2 	0.00387
859.1 	0.00369
859.0 	0.00352
858.9 	0.00349
858.8 	0.00347
858.7 	0.00344
858.6 	0.00342
858.5 	0.00339
858.4 	0.00364
858.3 	0.0039
858.2 	0.00415
858.1 	0.00441
858.0 	0.00466
857.9 	0.00435
857.8 	0.00405
857.7 	0.00374
857.6 	0.00344
857.5 	0.00313
857.4 	0.00307
857.3 	0.00302
857.2 	0.00296
857.1 	0.0029
857.0 	0.00284
856.9 	0.00256
856.8 	0.00228
856.7 	0.002
856.6 	0.00171
856.5 	0.00143
856.4 	0.00131
856.3 	0.00118
856.2 	0.00105
856.1 	0.00093
856.0 	0.0008
855.9 	0.00096
855.8 	0.00113
855.7 	0.00129
855.6 	0.00145
855.5 	0.00162
855.4 	0.00257
855.3 	0.00351
855.2 	0.00446
855.1 	0.00541
855.0 	0.00636
854.9 	0.00676
854.8 	0.00716
854.7 	0.00757
854.6 	0.00797
854.5 	0.00838
854.4 	0.0067
854.3 	0.00503
854.2 	0.00335
854.1 	0.00168
854.0 	0
853.9 	0.00093
853.8 	0.00187
853.7 	0.0028
853.6 	0.00374
853.5 	0.00467
853.4 	0.00434
853.3 	0.00401
853.2 	0.00369
853.1 	0.00336
853.0 	0.00303
852.9 	0.00303
852.8 	0.00304
852.7 	0.00304
852.6 	0.00304
852.5 	0.00305
852.4 	0.00312
852.3 	0.00319
852.2 	0.00327
852.1 	0.00334
852.0 	0.00341
851.9 	0.0028
851.8 	0.00218
851.7 	0.00157
851.6 	0.00096
851.5 	0.00034
851.4 	0.00086
851.3 	0.00138
851.2 	0.0019
851.1 	0.00242
851.0 	0.00294
850.9 	0.00413
850.8 	0.00532
850.7 	0.00652
850.6 	0.00771
850.5 	0.0089
850.4 	0.00996
850.3 	0.01102
850.2 	0.01208
850.1 	0.01314
850.0 	0.0142
849.9 	0.01553
849.8 	0.01685
849.7 	0.01817
849.6 	0.01949
849.5 	0.02081
849.4 	0.01894
849.3 	0.01707
849.2 	0.0152
849.1 	0.01333
849.0 	0.01146
848.9 	0.0122
848.8 	0.01294
848.7 	0.01369
848.6 	0.01443
848.5 	0.01517
848.4 	0.01505
848.3 	0.01492
848.2 	0.0148
848.1 	0.01468
848.0 	0.01455
847.9 	0.01403
847.8 	0.01352
847.7 	0.013
847.6 	0.01248
847.5 	0.01196
847.4 	0.01069
847.3 	0.00942
847.2 	0.00815
847.1 	0.00688
847.0 	0.00562
846.9 	0.00509
846.8 	0.00456
846.7 	0.00403
846.6 	0.0035
846.5 	0.00298
846.4 	0.00259
846.3 	0.0022
846.2 	0.00182
846.1 	0.00143
846.0 	0.00104
845.9 	0.00269
845.8 	0.00433
845.7 	0.00598
845.6 	0.00763
845.5 	0.00927
845.4 	0.01047
845.3 	0.01166
845.2 	0.01286
845.1 	0.01405
845.0 	0.01525
844.9 	0.01253
844.8 	0.0098
844.7 	0.00708
844.6 	0.00436
844.5 	0.00163
844.4 	0.00176
844.3 	0.00188
844.2 	0.002
844.1 	0.00213
844.0 	0.00225
843.9 	0.00345
843.8 	0.00465
843.7 	0.00585
843.6 	0.00705
843.5 	0.00826
843.4 	0.00681
843.3 	0.00537
843.2 	0.00393
843.1 	0.00249
843.0 	0.00105
842.9 	0.00356
842.8 	0.00607
842.7 	0.00858
842.6 	0.01108
842.5 	0.01359
842.4 	0.01197
842.3 	0.01035
842.2 	0.00873
842.1 	0.00711
842.0 	0.00549
841.9 	0.00489
841.8 	0.00428
841.7 	0.00368
841.6 	0.00307
841.5 	0.00247
841.4 	0.00278
841.3 	0.0031
841.2 	0.00341
841.1 	0.00373
841.0 	0.00405
840.9 	0.00434
840.8 	0.00464
840.7 	0.00493
840.6 	0.00522
840.5 	0.00552
840.4 	0.00586
840.3 	0.00621
840.2 	0.00655
840.1 	0.00689
840.0 	0.00724
839.9 	0.00793
839.8 	0.00862
839.7 	0.00931
839.6 	0.01
839.5 	0.01069
839.4 	0.00872
839.3 	0.00674
839.2 	0.00476
839.1 	0.00279
839.0 	0.00081
838.9 	0.00188
838.8 	0.00294
838.7 	0.00401
838.6 	0.00507
838.5 	0.00614
838.4 	0.00522
838.3 	0.00429
838.2 	0.00337
838.1 	0.00245
838.0 	0.00153
837.9 	0.00229
837.8 	0.00306
837.7 	0.00382
837.6 	0.00458
837.5 	0.00535
837.4 	0.00489
837.3 	0.00442
837.2 	0.00396
837.1 	0.0035
837.0 	0.00304
836.9 	0.00308
836.8 	0.00312
836.7 	0.00316
836.6 	0.0032
836.5 	0.00324
836.4 	0.00538
836.3 	0.00753
836.2 	0.00967
836.1 	0.01182
836.0 	0.01397
835.9 	0.01179
835.8 	0.00961
835.7 	0.00743
835.6 	0.00525
835.5 	0.00307
835.4 	0.00285
835.3 	0.00262
835.2 	0.0024
835.1 	0.00218
835.0 	0.00195
834.9 	0.00212
834.8 	0.00229
834.7 	0.00246
834.6 	0.00263
834.5 	0.0028
834.4 	0.00239
834.3 	0.00198
834.2 	0.00157
834.1 	0.00115
834.0 	0.00074
833.9 	0.00149
833.8 	0.00224
833.7 	0.003
833.6 	0.00375
833.5 	0.0045
833.4 	0.00381
833.3 	0.00312
833.2 	0.00244
833.1 	0.00175
833.0 	0.00107
832.9 	0.00157
832.8 	0.00208
832.7 	0.00258
832.6 	0.00309
832.5 	0.0036
832.4 	0.00376
832.3 	0.00393
832.2 	0.0041
832.1 	0.00427
832.0 	0.00444
831.9 	0.00373
831.8 	0.00302
831.7 	0.00231
831.6 	0.0016
831.5 	0.00089
831.4 	0.00078
831.3 	0.00067
831.2 	0.00055
831.1 	0.00044
831.0 	0.00033
830.9 	0.00048
830.8 	0.00063
830.7 	0.00077
830.6 	0.00092
830.5 	0.00107
830.4 	0.00134
830.3 	0.00161
830.2 	0.00188
830.1 	0.00215
830.0 	0.00242
829.9 	0.00227
829.8 	0.00211
829.7 	0.00196
829.6 	0.00181
829.5 	0.00165
829.4 	0.00224
829.3 	0.00282
829.2 	0.00341
829.1 	0.00399
829.0 	0.00458
828.9 	0.00452
828.8 	0.00447
828.7 	0.00441
828.6 	0.00436
828.5 	0.00431
828.4 	0.00376
828.3 	0.00321
828.2 	0.00267
828.1 	0.00212
828.0 	0.00158
827.9 	0.00194
827.8 	0.0023
827.7 	0.00266
827.6 	0.00303
827.5 	0.00339
827.4 	0.00279
827.3 	0.00219
827.2 	0.00159
827.1 	0.00098
827.0 	0.00038
826.9 	0.00104
826.8 	0.0017
826.7 	0.00236
826.6 	0.00302
826.5 	0.00368
826.4 	0.00305
826.3 	0.00243
826.2 	0.00181
826.1 	0.00118
826.0 	0.00056
825.9 	0.0005
825.8 	0.00045
825.7 	0.00039
825.6 	0.00033
825.5 	0.00028
825.4 	0.00056
825.3 	0.00086
825.2 	0.00114
825.1 	0.00143
825.0 	0.00173
824.9 	0.00251
824.8 	0.00329
824.7 	0.00408
824.6 	0.00486
824.5 	0.00565
824.4 	0.00475
824.3 	0.00385
824.2 	0.00295
824.1 	0.00205
824.0 	0.00115
823.9 	0.00103
823.8 	0.0009
823.7 	0.00078
823.6 	0.00065
823.5 	0.00053
823.4 	0.00059
823.3 	0.00066
823.2 	0.00073
823.1 	0.0008
823.0 	0.00087
822.9 	0.00075
822.8 	0.00062
822.7 	0.0005
822.6 	0.00038
822.5 	0.00026
822.4 	0.00109
822.3 	0.00193
822.2 	0.00276
822.1 	0.00359
822.0 	0.00443
821.9 	0.00417
821.8 	0.0039
821.7 	0.00364
821.6 	0.00338
821.5 	0.00312
821.4 	0.00273
821.3 	0.00234
821.2 	0.00195
821.1 	0.00156
821.0 	0.00117
820.9 	0.00137
820.8 	0.00157
820.7 	0.00176
820.6 	0.00196
820.5 	0.00216
820.4 	0.00293
820.3 	0.0037
820.2 	0.00447
820.1 	0.00524
820.0 	0.00601
819.9 	0.00496
819.8 	0.0039
819.7 	0.00285
819.6 	0.00179
819.5 	0.00074
819.4 	0.00117
819.3 	0.00161
819.2 	0.00204
819.1 	0.00248
819.0 	0.00292
818.9 	0.00312
818.8 	0.00333
818.7 	0.00354
818.6 	0.00374
818.5 	0.00395
818.4 	0.0037
818.3 	0.00346
818.2 	0.00321
818.1 	0.00297
818.0 	0.00272
817.9 	0.00347
817.8 	0.00421
817.7 	0.00496
817.6 	0.0057
817.5 	0.00645
817.4 	0.00555
817.3 	0.00466
817.2 	0.00377
817.1 	0.00287
817.0 	0.00198
816.9 	0.00276
816.8 	0.00355
816.7 	0.00433
816.6 	0.00511
816.5 	0.0059
816.4 	0.00484
816.3 	0.00379
816.2 	0.00273
816.1 	0.00168
816.0 	0.00063
815.9 	0.00089
815.8 	0.00115
815.7 	0.00142
815.6 	0.00168
815.5 	0.00194
815.4 	0.00177
815.3 	0.0016
815.2 	0.00143
815.1 	0.00125
815.0 	0.00108
814.9 	0.00143
814.8 	0.00179
814.7 	0.00214
814.6 	0.00249
814.5 	0.00285
814.4 	0.00361
814.3 	0.00437
814.2 	0.00513
814.1 	0.00589
814.0 	0.00666
813.9 	0.00592
813.8 	0.00518
813.7 	0.00444
813.6 	0.0037
813.5 	0.00297
813.4 	0.00263
813.3 	0.0023
813.2 	0.00196
813.1 	0.00162
813.0 	0.00129
812.9 	0.00108
812.8 	0.00086
812.7 	0.00065
812.6 	0.00044
812.5 	0.00023
812.4 	0.0006
812.3 	0.00098
812.2 	0.00135
812.1 	0.00173
812.0 	0.0021
811.9 	0.00223
811.8 	0.00237
811.7 	0.0025
811.6 	0.00263
811.5 	0.00277
811.4 	0.00314
811.3 	0.00351
811.2 	0.00388
811.1 	0.00425
811.0 	0.00462
810.9 	0.00456
810.8 	0.0045
810.7 	0.00443
810.6 	0.00437
810.5 	0.00431
810.4 	0.00426
810.3 	0.00421
810.2 	0.00416
810.1 	0.00411
810.0 	0.00406
809.9 	0.00356
809.8 	0.00305
809.7 	0.00255
809.6 	0.00205
809.5 	0.00154
809.4 	0.00179
809.3 	0.00204
809.2 	0.00229
809.1 	0.00254
809.0 	0.00279
808.9 	0.0028
808.8 	0.00281
808.7 	0.00282
808.6 	0.00284
808.5 	0.00285
808.4 	0.00272
808.3 	0.00258
808.2 	0.00245
808.1 	0.00232
808.0 	0.00219
807.9 	0.00256
807.8 	0.00294
807.7 	0.00331
807.6 	0.00369
807.5 	0.00407
807.4 	0.0044
807.3 	0.00473
807.2 	0.00506
807.1 	0.00539
807.0 	0.00572
806.9 	0.00465
806.8 	0.00357
806.7 	0.0025
806.6 	0.00143
806.5 	0.00036
806.4 	0.00035
806.3 	0.00033
806.2 	0.00032
806.1 	0.0003
806.0 	0.00029
805.9 	0.00136
805.8 	0.00244
805.7 	0.00351
805.6 	0.00459
805.5 	0.00566
805.4 	0.0049
805.3 	0.00414
805.2 	0.00338
805.1 	0.00262
805.0 	0.00186
804.9 	0.00207
804.8 	0.00228
804.7 	0.00249
804.6 	0.00271
804.5 	0.00292
804.4 	0.00289
804.3 	0.00286
804.2 	0.00283
804.1 	0.0028
804.0 	0.00277
803.9 	0.00288
803.8 	0.00299
803.7 	0.0031
803.6 	0.00321
803.5 	0.00332
803.4 	0.00277
803.3 	0.00222
803.2 	0.00167
803.1 	0.00112
803.0 	0.00056
802.9 	0.00058
802.8 	0.00059
802.7 	0.0006
802.6 	0.00062
802.5 	0.00063
802.4 	0.00084
802.3 	0.00105
802.2 	0.00126
802.1 	0.00147
802.0 	0.00168
801.9 	0.002
801.8 	0.00233
801.7 	0.00265
801.6 	0.00297
801.5 	0.00329
801.4 	0.00269
801.3 	0.00208
801.2 	0.00148
801.1 	0.00088
801.0 	0.00028
800.9 	0.00109
800.8 	0.00189
800.7 	0.0027
800.6 	0.00351
800.5 	0.00432
800.4 	0.00398
800.3 	0.00364
800.2 	0.00331
800.1 	0.00297
800.0 	0.00264
799.9 	0.00386
799.8 	0.00508
799.7 	0.0063
799.6 	0.00752
799.5 	0.00875
799.4 	0.00728
799.3 	0.00581
799.2 	0.00435
799.1 	0.00288
799.0 	0.00141
798.9 	0.00145
798.8 	0.00148
798.7 	0.00151
798.6 	0.00155
798.5 	0.00158
798.4 	0.00328
798.3 	0.00499
798.2 	0.00669
798.1 	0.00839
798.0 	0.0101
797.9 	0.0088
797.8 	0.00751
797.7 	0.00621
797.6 	0.00492
797.5 	0.00362
797.4 	0.00437
797.3 	0.00511
797.2 	0.00586
797.1 	0.00661
797.0 	0.00735
796.9 	0.00636
796.8 	0.00536
796.7 	0.00437
796.6 	0.00337
796.5 	0.00238
796.4 	0.00288
796.3 	0.00338
796.2 	0.00388
796.1 	0.00438
796.0 	0.00489
795.9 	0.00487
795.8 	0.00486
795.7 	0.00485
795.6 	0.00484
795.5 	0.00483
795.4 	0.00489
795.3 	0.00495
795.2 	0.00501
795.1 	0.00507
795.0 	0.00513
794.9 	0.00512
794.8 	0.00511
794.7 	0.0051
794.6 	0.0051
794.5 	0.00509
794.4 	0.00436
794.3 	0.00364
794.2 	0.00291
794.1 	0.00219
794.0 	0.00147
793.9 	0.0045
793.8 	0.00753
793.7 	0.01056
793.6 	0.01359
793.5 	0.01662
793.4 	0.01441
793.3 	0.01221
793.2 	0.01
793.1 	0.0078
793.0 	0.00559
792.9 	0.00498
792.8 	0.00437
792.7 	0.00376
792.6 	0.00315
792.5 	0.00254
792.4 	0.00256
792.3 	0.00259
792.2 	0.00262
792.1 	0.00265
792.0 	0.00268
791.9 	0.0022
791.8 	0.00173
791.7 	0.00126
791.6 	0.00078
791.5 	0.00031
791.4 	0.00118
791.3 	0.00204
791.2 	0.00291
791.1 	0.00377
791.0 	0.00464
790.9 	0.00396
790.8 	0.00327
790.7 	0.00259
790.6 	0.00191
790.5 	0.00123
790.4 	0.00101
790.3 	0.0008
790.2 	0.00058
790.1 	0.00037
790.0 	0.00015
789.9 	0.00088
789.8 	0.0016
789.7 	0.00232
789.6 	0.00305
789.5 	0.00377
789.4 	0.00376
789.3 	0.00376
789.2 	0.00375
789.1 	0.00375
789.0 	0.00374
788.9 	0.00439
788.8 	0.00504
788.7 	0.00568
788.6 	0.00633
788.5 	0.00698
788.4 	0.00599
788.3 	0.00501
788.2 	0.00403
788.1 	0.00304
788.0 	0.00206
787.9 	0.00255
787.8 	0.00304
787.7 	0.00353
787.6 	0.00402
787.5 	0.00452
787.4 	0.00451
787.3 	0.0045
787.2 	0.0045
787.1 	0.00449
787.0 	0.00449
786.9 	0.00491
786.8 	0.00533
786.7 	0.00576
786.6 	0.00618
786.5 	0.0066
786.4 	0.00614
786.3 	0.00567
786.2 	0.0052
786.1 	0.00473
786.0 	0.00427
785.9 	0.00415
785.8 	0.00403
785.7 	0.00391
785.6 	0.00379
785.5 	0.00367
785.4 	0.00411
785.3 	0.00455
785.2 	0.00499
785.1 	0.00544
785.0 	0.00588
784.9 	0.00476
784.8 	0.00364
784.7 	0.00252
784.6 	0.0014
784.5 	0.00028
784.4 	0.00118
784.3 	0.00209
784.2 	0.003
784.1 	0.00391
784.0 	0.00482
783.9 	0.00486
783.8 	0.00491
783.7 	0.00495
783.6 	0.005
783.5 	0.00504
783.4 	0.00544
783.3 	0.00584
783.2 	0.00624
783.1 	0.00664
783.0 	0.00704
782.9 	0.00622
782.8 	0.0054
782.7 	0.00459
782.6 	0.00377
782.5 	0.00295
782.4 	0.00289
782.3 	0.00284
782.2 	0.00278
782.1 	0.00272
782.0 	0.00266
781.9 	0.00337
781.8 	0.00407
781.7 	0.00478
781.6 	0.00548
781.5 	0.00619
781.4 	0.00508
781.3 	0.00397
781.2 	0.00287
781.1 	0.00176
781.0 	0.00065
780.9 	0.00101
780.8 	0.00138
780.7 	0.00174
780.6 	0.0021
780.5 	0.00246
780.4 	0.00294
780.3 	0.00343
780.2 	0.00391
780.1 	0.00439
780.0 	0.00488
779.9 	0.006
779.8 	0.00711
779.7 	0.00823
779.6 	0.00935
779.5 	0.01047
779.4 	0.00948
779.3 	0.00848
779.2 	0.00749
779.1 	0.0065
779.0 	0.00551
778.9 	0.00463
778.8 	0.00375
778.7 	0.00287
778.6 	0.00199
778.5 	0.00111
778.4 	0.00251
778.3 	0.00391
778.2 	0.00531
778.1 	0.0067
778.0 	0.0081
777.9 	0.00736
777.8 	0.00661
777.7 	0.00587
777.6 	0.00513
777.5 	0.00438
777.4 	0.00425
777.3 	0.00412
777.2 	0.004
777.1 	0.00387
777.0 	0.00374
776.9 	0.00447
776.8 	0.00521
776.7 	0.00594
776.6 	0.00668
776.5 	0.00741
776.4 	0.00712
776.3 	0.00682
776.2 	0.00652
776.1 	0.00622
776.0 	0.00592
775.9 	0.00616
775.8 	0.00641
775.7 	0.00666
775.6 	0.0069
775.5 	0.00715
775.4 	0.00737
775.3 	0.00759
775.2 	0.00781
775.1 	0.00803
775.0 	0.00825
774.9 	0.00704
774.8 	0.00583
774.7 	0.00461
774.6 	0.0034
774.5 	0.00219
774.4 	0.00218
774.3 	0.00218
774.2 	0.00218
774.1 	0.00217
774.0 	0.00217
773.9 	0.00305
773.8 	0.00393
773.7 	0.00481
773.6 	0.00569
773.5 	0.00657
773.4 	0.00577
773.3 	0.00497
773.2 	0.00418
773.1 	0.00338
773.0 	0.00258
772.9 	0.00231
772.8 	0.00204
772.7 	0.00177
772.6 	0.0015
772.5 	0.00123
772.4 	0.00175
772.3 	0.00228
772.2 	0.0028
772.1 	0.00333
772.0 	0.00386
771.9 	0.00396
771.8 	0.00406
771.7 	0.00416
771.6 	0.00427
771.5 	0.00437
771.4 	0.00466
771.3 	0.00496
771.2 	0.00526
771.1 	0.00555
771.0 	0.00585
770.9 	0.00474
770.8 	0.00364
770.7 	0.00253
770.6 	0.00143
770.5 	0.00032
770.4 	0.00047
770.3 	0.00062
770.2 	0.00077
770.1 	0.00092
770.0 	0.00107
769.9 	0.00191
769.8 	0.00275
769.7 	0.00359
769.6 	0.00443
769.5 	0.00528
769.4 	0.00489
769.3 	0.0045
769.2 	0.00412
769.1 	0.00373
769.0 	0.00335
768.9 	0.0033
768.8 	0.00325
768.7 	0.0032
768.6 	0.00316
768.5 	0.00311
768.4 	0.00353
768.3 	0.00396
768.2 	0.00438
768.1 	0.00481
768.0 	0.00523
767.9 	0.00508
767.8 	0.00493
767.7 	0.00478
767.6 	0.00463
767.5 	0.00448
767.4 	0.00484
767.3 	0.0052
767.2 	0.00556
767.1 	0.00591
767.0 	0.00627
766.9 	0.0055
766.8 	0.00473
766.7 	0.00395
766.6 	0.00318
766.5 	0.00241
766.4 	0.00258
766.3 	0.00276
766.2 	0.00293
766.1 	0.00311
766.0 	0.00328
765.9 	0.00322
765.8 	0.00315
765.7 	0.00309
765.6 	0.00303
765.5 	0.00296
765.4 	0.00243
765.3 	0.0019
765.2 	0.00136
765.1 	0.00083
765.0 	0.00029
764.9 	0.00033
764.8 	0.00037
764.7 	0.00041
764.6 	0.00045
764.5 	0.00049
764.4 	0.00197
764.3 	0.00346
764.2 	0.00495
764.1 	0.00644
764.0 	0.00792
763.9 	0.00647
763.8 	0.00502
763.7 	0.00357
763.6 	0.00212
763.5 	0.00067
763.4 	0.00078
763.3 	0.0009
763.2 	0.00101
763.1 	0.00112
763.0 	0.00123
762.9 	0.00114
762.8 	0.00104
762.7 	0.00095
762.6 	0.00085
762.5 	0.00075
762.4 	0.00126
762.3 	0.00176
762.2 	0.00226
762.1 	0.00277
762.0 	0.00327
761.9 	0.00473
761.8 	0.00619
761.7 	0.00765
761.6 	0.00911
761.5 	0.01057
761.4 	0.00945
761.3 	0.00833
761.2 	0.00721
761.1 	0.0061
761.0 	0.00498
760.9 	0.00623
760.8 	0.00749
760.7 	0.00875
760.6 	0.01
760.5 	0.01126
760.4 	0.01263
760.3 	0.01401
760.2 	0.01538
760.1 	0.01676
760.0 	0.01813
759.9 	0.01851
759.8 	0.01889
759.7 	0.01926
759.6 	0.01964
759.5 	0.02001
759.4 	0.0197
759.3 	0.01939
759.2 	0.01908
759.1 	0.01877
759.0 	0.01846
758.9 	0.02038
758.8 	0.0223
758.7 	0.02422
758.6 	0.02614
758.5 	0.02807
758.4 	0.03102
758.3 	0.03397
758.2 	0.03692
758.1 	0.03988
758.0 	0.04283
757.9 	0.04644
757.8 	0.05005
757.7 	0.05366
757.6 	0.05728
757.5 	0.06089
757.4 	0.06513
757.3 	0.06937
757.2 	0.07361
757.1 	0.07785
757.0 	0.08209
756.9 	0.08855
756.8 	0.09501
756.7 	0.10146
756.6 	0.10792
756.5 	0.11438
756.4 	0.12318
756.3 	0.13198
756.2 	0.14078
756.1 	0.14957
756.0 	0.15837
755.9 	0.17276
755.8 	0.18716
755.7 	0.20155
755.6 	0.21593
755.5 	0.23033
755.4 	0.25305
755.3 	0.27579
755.2 	0.29851
755.1 	0.32123
755.0 	0.34397
754.9 	0.38083
754.8 	0.41771
754.7 	0.45457
754.6 	0.49144
754.5 	0.52832
754.4 	0.58694
754.3 	0.6456
754.2 	0.70423
754.1 	0.76285
754.0 	0.82151
753.9 	0.92153
753.8 	1.02161
753.7 	1.12164
753.6 	1.22166
753.5 	1.32174
753.4 	1.49776
753.3 	1.67388
753.2 	1.8499
753.1 	2.02592
753.0 	2.20204
752.9 	2.51415
752.8 	2.82646
752.7 	3.13857
752.6 	3.45069
752.5 	3.76299
752.4 	4.33847
752.3 	4.9143
752.2 	5.48979
752.1 	6.06527
752.0 	6.6411
751.9 	7.67677
751.8 	8.71307
751.7 	9.74873
751.6 	10.7844
751.5 	11.8207
751.4 	13.59371
751.3 	15.3678
751.2 	17.1408
751.1 	18.91381
751.0 	20.6879
750.9 	23.33434
750.8 	25.98238
750.7 	28.62882
750.6 	31.27525
750.5 	33.9233
750.4 	37.25574
750.3 	40.59023
750.2 	43.92267
750.1 	47.25512
750.0 	50.5896
749.9 	54.04223
749.8 	57.49698
749.7 	60.94962
749.6 	64.40225
749.5 	67.85699
749.4 	70.74691
749.3 	73.63859
749.2 	76.52851
749.1 	79.41842
749.0 	82.3101
748.9 	84.16305
748.8 	86.01713
748.7 	87.87007
748.6 	89.72302
748.5 	91.5771
748.4 	92.52443
748.3 	93.47234
748.2 	94.41966
748.1 	95.367
748.0 	96.3149
747.9 	96.68995
747.8 	97.06523
747.7 	97.44027
747.6 	97.81532
747.5 	98.1906
747.4 	98.33356
747.3 	98.47662
747.2 	98.61958
747.1 	98.76255
747.0 	98.9056
746.9 	98.93689
746.8 	98.9682
746.7 	98.9995
746.6 	99.03078
746.5 	99.0621
746.4 	99.08093
746.3 	99.09978
746.2 	99.11862
746.1 	99.13746
746.0 	99.1563
745.9 	99.14111
745.8 	99.1259
745.7 	99.1107
745.6 	99.0955
745.5 	99.0803
745.4 	99.05897
745.3 	99.03762
745.2 	99.01628
745.1 	98.99495
745.0 	98.9736
744.9 	98.97928
744.8 	98.98496
744.7 	98.99064
744.6 	98.99632
744.5 	99.002
744.4 	98.98254
744.3 	98.96307
744.2 	98.94362
744.1 	98.92416
744.0 	98.9047
743.9 	98.87348
743.8 	98.84225
743.7 	98.81104
743.6 	98.77982
743.5 	98.74859
743.4 	98.74991
743.3 	98.75124
743.2 	98.75256
743.1 	98.75388
743.0 	98.7552
742.9 	98.54133
742.8 	98.32733
742.7 	98.11346
742.6 	97.8996
742.5 	97.6856
742.4 	97.01752
742.3 	96.34904
742.2 	95.68096
742.1 	95.01289
742.0 	94.3444
741.9 	92.77421
741.8 	91.20305
741.7 	89.63285
741.6 	88.06265
741.5 	86.4915
741.4 	83.76829
741.3 	81.04341
741.2 	78.32019
741.1 	75.59698
741.0 	72.8721
740.9 	69.32261
740.8 	65.77095
740.7 	62.22145
740.6 	58.67196
740.5 	55.1203
740.4 	51.44546
740.3 	47.76837
740.2 	44.09353
740.1 	40.41869
740.0 	36.7416
739.9 	33.77366
739.8 	30.80392
739.7 	27.83598
739.6 	24.86805
739.5 	21.8983
739.4 	19.91914
739.3 	17.93878
739.2 	15.95962
739.1 	13.98046
739.0 	12.0001
738.9 	10.88365
738.8 	9.76652
738.7 	8.65008
738.6 	7.53363
738.5 	6.4165
738.4 	5.82474
738.3 	5.23262
738.2 	4.64086
738.1 	4.0491
738.0 	3.45698
737.9 	3.14834
737.8 	2.83951
737.7 	2.53087
737.6 	2.22223
737.5 	1.9134
737.4 	1.75124
737.3 	1.58897
737.2 	1.42681
737.1 	1.26464
737.0 	1.10238
736.9 	1.01617
736.8 	0.9299
736.7 	0.84368
736.6 	0.75747
736.5 	0.6712
736.4 	0.61973
736.3 	0.56822
736.2 	0.51675
736.1 	0.46527
736.0 	0.41377
735.9 	0.38481
735.8 	0.35584
735.7 	0.32689
735.6 	0.29794
735.5 	0.26897
735.4 	0.25095
735.3 	0.23293
735.2 	0.21491
735.1 	0.1969
735.0 	0.17888
734.9 	0.1677
734.8 	0.15651
734.7 	0.14533
734.6 	0.13416
734.5 	0.12297
734.4 	0.11531
734.3 	0.10764
734.2 	0.09998
734.1 	0.09232
734.0 	0.08465
733.9 	0.08046
733.8 	0.07626
733.7 	0.07207
733.6 	0.06788
733.5 	0.06368
733.4 	0.06008
733.3 	0.05648
733.2 	0.05288
733.1 	0.04929
733.0 	0.04569
732.9 	0.04315
732.8 	0.04061
732.7 	0.03807
732.6 	0.03553
732.5 	0.03299
732.4 	0.031
732.3 	0.02901
732.2 	0.02703
732.1 	0.02504
732.0 	0.02305
731.9 	0.02261
731.8 	0.02217
731.7 	0.02172
731.6 	0.02128
731.5 	0.02084
731.4 	0.02116
731.3 	0.02149
731.2 	0.02181
731.1 	0.02214
731.0 	0.02246
730.9 	0.02177
730.8 	0.02107
730.7 	0.02038
730.6 	0.01969
730.5 	0.01899
730.4 	0.01768
730.3 	0.01637
730.2 	0.01505
730.1 	0.01374
730.0 	0.01243
729.9 	0.01212
729.8 	0.01182
729.7 	0.01151
729.6 	0.01121
729.5 	0.01091
729.4 	0.00884
729.3 	0.00677
729.2 	0.00471
729.1 	0.00264
729.0 	0.00058
728.9 	0.00167
728.8 	0.00276
728.7 	0.00384
728.6 	0.00493
728.5 	0.00602
728.4 	0.00582
728.3 	0.00561
728.2 	0.0054
728.1 	0.00519
728.0 	0.00498
727.9 	0.00523
727.8 	0.00548
727.7 	0.00573
727.6 	0.00598
727.5 	0.00622
727.4 	0.00499
727.3 	0.00376
727.2 	0.00253
727.1 	0.0013
727.0 	7E-05
726.9 	0.00015
726.8 	0.00024
726.7 	0.00032
726.6 	0.0004
726.5 	0.00049
726.4 	0.00131
726.3 	0.00212
726.2 	0.00294
726.1 	0.00376
726.0 	0.00458
725.9 	0.00388
725.8 	0.00319
725.7 	0.00249
725.6 	0.0018
725.5 	0.0011
725.4 	0.00154
725.3 	0.00198
725.2 	0.00241
725.1 	0.00285
725.0 	0.00329
724.9 	0.00368
724.8 	0.00407
724.7 	0.00446
724.6 	0.00485
724.5 	0.00524
724.4 	0.00446
724.3 	0.00368
724.2 	0.0029
724.1 	0.00213
724.0 	0.00135
723.9 	0.0017
723.8 	0.00204
723.7 	0.00239
723.6 	0.00274
723.5 	0.00309
723.4 	0.0029
723.3 	0.00271
723.2 	0.00252
723.1 	0.00232
723.0 	0.00213
722.9 	0.00184
722.8 	0.00155
722.7 	0.00125
722.6 	0.00096
722.5 	0.00066
722.4 	0.00061
722.3 	0.00055
722.2 	0.0005
722.1 	0.00045
722.0 	0.00039
721.9 	0.00077
721.8 	0.00115
721.7 	0.00153
721.6 	0.0019
721.5 	0.00228
721.4 	0.00264
721.3 	0.003
721.2 	0.00336
721.1 	0.00372
721.0 	0.00408
720.9 	0.00332
720.8 	0.00255
720.7 	0.00179
720.6 	0.00102
720.5 	0.00026
720.4 	0.00028
720.3 	0.00031
720.2 	0.00033
720.1 	0.00036
720.0 	0.00038
719.9 	0.00076
719.8 	0.00114
719.7 	0.00153
719.6 	0.00191
719.5 	0.00229
719.4 	0.00206
719.3 	0.00183
719.2 	0.0016
719.1 	0.00137
719.0 	0.00114
718.9 	0.00185
718.8 	0.00256
718.7 	0.00327
718.6 	0.00399
718.5 	0.0047
718.4 	0.00449
718.3 	0.00429
718.2 	0.00408
718.1 	0.00387
718.0 	0.00367
717.9 	0.00367
717.8 	0.00368
717.7 	0.00369
717.6 	0.0037
717.5 	0.00371
717.4 	0.00338
717.3 	0.00306
717.2 	0.00274
717.1 	0.00241
717.0 	0.00209
716.9 	0.00205
716.8 	0.00201
716.7 	0.00197
716.6 	0.00193
716.5 	0.00189
716.4 	0.00157
716.3 	0.00125
716.2 	0.00094
716.1 	0.00062
716.0 	0.0003
715.9 	0.00057
715.8 	0.00083
715.7 	0.00109
715.6 	0.00136
715.5 	0.00162
715.4 	0.00135
715.3 	0.00107
715.2 	0.00079
715.1 	0.00051
715.0 	0.00024
714.9 	0.00049
714.8 	0.00073
714.7 	0.00098
714.6 	0.00123
714.5 	0.00148
714.4 	0.00154
714.3 	0.00159
714.2 	0.00165
714.1 	0.00171
714.0 	0.00177
713.9 	0.00184
713.8 	0.00192
713.7 	0.002
713.6 	0.00208
713.5 	0.00216
713.4 	0.00226
713.3 	0.00237
713.2 	0.00247
713.1 	0.00257
713.0 	0.00267
712.9 	0.00229
712.8 	0.0019
712.7 	0.00152
712.6 	0.00113
712.5 	0.00075
712.4 	0.00109
712.3 	0.00144
712.2 	0.00178
712.1 	0.00212
712.0 	0.00247
711.9 	0.00235
711.8 	0.00223
711.7 	0.00211
711.6 	0.002
711.5 	0.00188
711.4 	0.00166
711.3 	0.00144
711.2 	0.00123
711.1 	0.00101
711.0 	0.00079
710.9 	0.00069
710.8 	0.00059
710.7 	0.00049
710.6 	0.00038
710.5 	0.00028
710.4 	0.00088
710.3 	0.00148
710.2 	0.00208
710.1 	0.00268
710.0 	0.00328
709.9 	0.00323
709.8 	0.00319
709.7 	0.00314
709.6 	0.00309
709.5 	0.00304
709.4 	0.0028
709.3 	0.00255
709.2 	0.0023
709.1 	0.00206
709.0 	0.00181
708.9 	0.00206
708.8 	0.00231
708.7 	0.00256
708.6 	0.00281
708.5 	0.00306
708.4 	0.00262
708.3 	0.00218
708.2 	0.00175
708.1 	0.00131
708.0 	0.00087
707.9 	0.00079
707.8 	0.00072
707.7 	0.00064
707.6 	0.00056
707.5 	0.00049
707.4 	0.00093
707.3 	0.00138
707.2 	0.00183
707.1 	0.00228
707.0 	0.00273
706.9 	0.0024
706.8 	0.00206
706.7 	0.00173
706.6 	0.0014
706.5 	0.00106
706.4 	0.00105
706.3 	0.00104
706.2 	0.00103
706.1 	0.00102
706.0 	0.001
705.9 	0.00096
705.8 	0.00092
705.7 	0.00087
705.6 	0.00083
705.5 	0.00079
705.4 	0.00104
705.3 	0.00128
705.2 	0.00153
705.1 	0.00178
705.0 	0.00203
704.9 	0.00202
704.8 	0.00201
704.7 	0.00199
704.6 	0.00198
704.5 	0.00197
704.4 	0.00202
704.3 	0.00206
704.2 	0.00211
704.1 	0.00216
704.0 	0.00221
703.9 	0.00209
703.8 	0.00198
703.7 	0.00186
703.6 	0.00175
703.5 	0.00163
703.4 	0.00154
703.3 	0.00145
703.2 	0.00135
703.1 	0.00126
703.0 	0.00117
702.9 	0.00121
702.8 	0.00125
702.7 	0.00128
702.6 	0.00132
702.5 	0.00136
702.4 	0.00142
702.3 	0.00148
702.2 	0.00154
702.1 	0.00159
702.0 	0.00165
701.9 	0.00178
701.8 	0.00191
701.7 	0.00203
701.6 	0.00216
701.5 	0.00229
701.4 	0.00201
701.3 	0.00173
701.2 	0.00145
701.1 	0.00117
701.0 	0.00089
700.9 	0.00092
700.8 	0.00095
700.7 	0.00097
700.6 	0.001
700.5 	0.00103
700.4 	0.00111
700.3 	0.00118
700.2 	0.00126
700.1 	0.00134
700.0 	0.00142
699.9 	0.00152
699.8 	0.00162
699.7 	0.00173
699.6 	0.00183
699.5 	0.00194
699.4 	0.00231
699.3 	0.00268
699.2 	0.00305
699.1 	0.00343
699.0 	0.0038
698.9 	0.00328
698.8 	0.00276
698.7 	0.00224
698.6 	0.00171
698.5 	0.00119
698.4 	0.00119
698.3 	0.00119
698.2 	0.00119
698.1 	0.00119
698.0 	0.00119
697.9 	0.00099
697.8 	0.00079
697.7 	0.00059
697.6 	0.00039
697.5 	0.00019
697.4 	0.00035
697.3 	0.00051
697.2 	0.00067
697.1 	0.00083
697.0 	0.00099
696.9 	0.00094
696.8 	0.00089
696.7 	0.00084
696.6 	0.00079
696.5 	0.00074
696.4 	0.0008
696.3 	0.00085
696.2 	0.00091
696.1 	0.00096
696.0 	0.00102
695.9 	0.00089
695.8 	0.00076
695.7 	0.00063
695.6 	0.0005
695.5 	0.00037
695.4 	0.00059
695.3 	0.00082
695.2 	0.00105
695.1 	0.00128
695.0 	0.00151
694.9 	0.00167
694.8 	0.00183
694.7 	0.00199
694.6 	0.00215
694.5 	0.00231
694.4 	0.00188
694.3 	0.00146
694.2 	0.00103
694.1 	0.00061
694.0 	0.00018
693.9 	0.00022
693.8 	0.00027
693.7 	0.00031
693.6 	0.00036
693.5 	0.0004
693.4 	0.00035
693.3 	0.00029
693.2 	0.00024
693.1 	0.00019
693.0 	0.00013
692.9 	0.00015
692.8 	0.00017
692.7 	0.00019
692.6 	0.0002
692.5 	0.00022
692.4 	0.00059
692.3 	0.00096
692.2 	0.00132
692.1 	0.00169
692.0 	0.00206
691.9 	0.00224
691.8 	0.00242
691.7 	0.0026
691.6 	0.00278
691.5 	0.00296
691.4 	0.00305
691.3 	0.00313
691.2 	0.00321
691.1 	0.0033
691.0 	0.00338
690.9 	0.00273
690.8 	0.00208
690.7 	0.00143
690.6 	0.00078
690.5 	0.00013
690.4 	0.00059
690.3 	0.00105
690.2 	0.00151
690.1 	0.00198
690.0 	0.00244
689.9 	0.00205
689.8 	0.00167
689.7 	0.00128
689.6 	0.00089
689.5 	0.00051
689.4 	0.00058
689.3 	0.00064
689.2 	0.00071
689.1 	0.00078
689.0 	0.00084
688.9 	0.00082
688.8 	0.00079
688.7 	0.00076
688.6 	0.00074
688.5 	0.00071
688.4 	0.00089
688.3 	0.00106
688.2 	0.00124
688.1 	0.00141
688.0 	0.00159
687.9 	0.002
687.8 	0.00241
687.7 	0.00282
687.6 	0.00323
687.5 	0.00365
687.4 	0.00334
687.3 	0.00303
687.2 	0.00272
687.1 	0.00241
687.0 	0.0021
686.9 	0.00188
686.8 	0.00167
686.7 	0.00145
686.6 	0.00124
686.5 	0.00102
686.4 	0.0011
686.3 	0.00118
686.2 	0.00126
686.1 	0.00134
686.0 	0.00142
685.9 	0.00174
685.8 	0.00206
685.7 	0.00238
685.6 	0.00271
685.5 	0.00303
685.4 	0.00268
685.3 	0.00233
685.2 	0.00198
685.1 	0.00163
685.0 	0.00128
684.9 	0.00143
684.8 	0.00158
684.7 	0.00173
684.6 	0.00188
684.5 	0.00203
684.4 	0.00174
684.3 	0.00144
684.2 	0.00115
684.1 	0.00085
684.0 	0.00055
683.9 	0.00092
683.8 	0.00129
683.7 	0.00166
683.6 	0.00203
683.5 	0.0024
683.4 	0.00245
683.3 	0.00251
683.2 	0.00256
683.1 	0.00261
683.0 	0.00266
682.9 	0.00222
682.8 	0.00178
682.7 	0.00134
682.6 	0.0009
682.5 	0.00047
682.4 	0.00094
682.3 	0.00141
682.2 	0.00188
682.1 	0.00235
682.0 	0.00282
681.9 	0.00271
681.8 	0.0026
681.7 	0.00248
681.6 	0.00237
681.5 	0.00226
681.4 	0.00207
681.3 	0.00187
681.2 	0.00168
681.1 	0.00149
681.0 	0.0013
680.9 	0.00126
680.8 	0.00123
680.7 	0.0012
680.6 	0.00117
680.5 	0.00114
680.4 	0.001
680.3 	0.00086
680.2 	0.00073
680.1 	0.00059
680.0 	0.00045
679.9 	0.00042
679.8 	0.00039
679.7 	0.00036
679.6 	0.00033
679.5 	0.0003
679.4 	0.00067
679.3 	0.00104
679.2 	0.00141
679.1 	0.00179
679.0 	0.00216
678.9 	0.00188
678.8 	0.00161
678.7 	0.00133
678.6 	0.00105
678.5 	0.00078
678.4 	0.0011
678.3 	0.00142
678.2 	0.00174
678.1 	0.00207
678.0 	0.00239
677.9 	0.00232
677.8 	0.00225
677.7 	0.00218
677.6 	0.00211
677.5 	0.00204
677.4 	0.0019
677.3 	0.00176
677.2 	0.00162
677.1 	0.00148
677.0 	0.00134
676.9 	0.00127
676.8 	0.00119
676.7 	0.00112
676.6 	0.00105
676.5 	0.00097
676.4 	0.0008
676.3 	0.00063
676.2 	0.00045
676.1 	0.00028
676.0 	0.00011
675.9 	0.00041
675.8 	0.00071
675.7 	0.001
675.6 	0.0013
675.5 	0.0016
675.4 	0.00198
675.3 	0.00235
675.2 	0.00272
675.1 	0.00309
675.0 	0.00347
674.9 	0.00284
674.8 	0.00222
674.7 	0.0016
674.6 	0.00097
674.5 	0.00035
674.4 	0.00062
674.3 	0.0009
674.2 	0.00117
674.1 	0.00144
674.0 	0.00171
673.9 	0.00163
673.8 	0.00156
673.7 	0.00148
673.6 	0.0014
673.5 	0.00132
673.4 	0.0014
673.3 	0.00147
673.2 	0.00154
673.1 	0.00162
673.0 	0.00169
672.9 	0.00176
672.8 	0.00184
672.7 	0.00191
672.6 	0.00199
672.5 	0.00206
672.4 	0.00216
672.3 	0.00226
672.2 	0.00236
672.1 	0.00246
672.0 	0.00256
671.9 	0.00268
671.8 	0.0028
671.7 	0.00291
671.6 	0.00303
671.5 	0.00315
671.4 	0.00268
671.3 	0.00221
671.2 	0.00175
671.1 	0.00128
671.0 	0.00081
670.9 	0.00072
670.8 	0.00063
670.7 	0.00054
670.6 	0.00046
670.5 	0.00037
670.4 	0.00039
670.3 	0.00041
670.2 	0.00043
670.1 	0.00045
670.0 	0.00047
669.9 	0.00042
669.8 	0.00037
669.7 	0.00033
669.6 	0.00028
669.5 	0.00023
669.4 	0.00047
669.3 	0.00071
669.2 	0.00094
669.1 	0.00118
669.0 	0.00142
668.9 	0.00156
668.8 	0.00171
668.7 	0.00186
668.6 	0.00201
668.5 	0.00216
668.4 	0.00187
668.3 	0.00158
668.2 	0.00129
668.1 	0.001
668.0 	0.00072
667.9 	0.0007
667.8 	0.00069
667.7 	0.00067
667.6 	0.00066
667.5 	0.00065
667.4 	0.0007
667.3 	0.00075
667.2 	0.0008
667.1 	0.00085
667.0 	0.0009
666.9 	0.00096
666.8 	0.00101
666.7 	0.00107
666.6 	0.00113
666.5 	0.00118
666.4 	0.00116
666.3 	0.00113
666.2 	0.0011
666.1 	0.00107
666.0 	0.00105
665.9 	0.00086
665.8 	0.00067
665.7 	0.00048
665.6 	0.00029
665.5 	0.0001
665.4 	0.00044
665.3 	0.00079
665.2 	0.00113
665.1 	0.00148
665.0 	0.00182
664.9 	0.00173
664.8 	0.00163
664.7 	0.00154
664.6 	0.00144
664.5 	0.00134
664.4 	0.00117
664.3 	0.001
664.2 	0.00084
664.1 	0.00067
664.0 	0.0005
663.9 	0.00065
663.8 	0.0008
663.7 	0.00096
663.6 	0.00111
663.5 	0.00127
663.4 	0.00124
663.3 	0.00121
663.2 	0.00119
663.1 	0.00116
663.0 	0.00114
662.9 	0.00108
662.8 	0.00102
662.7 	0.00097
662.6 	0.00091
662.5 	0.00086
662.4 	0.0011
662.3 	0.00134
662.2 	0.00158
662.1 	0.00182
662.0 	0.00206
661.9 	0.0018
661.8 	0.00154
661.7 	0.00128
661.6 	0.00102
661.5 	0.00076
661.4 	0.00072
661.3 	0.00068
661.2 	0.00064
661.1 	0.00061
661.0 	0.00057
660.9 	0.00047
660.8 	0.00038
660.7 	0.00028
660.6 	0.00019
660.5 	9E-05
660.4 	0.00029
660.3 	0.00049
660.2 	0.0007
660.1 	0.0009
660.0 	0.0011
659.9 	0.00123
659.8 	0.00136
659.7 	0.00149
659.6 	0.00161
659.5 	0.00174
659.4 	0.00153
659.3 	0.00132
659.2 	0.0011
659.1 	0.00089
659.0 	0.00068
658.9 	0.00091
658.8 	0.00115
658.7 	0.00139
658.6 	0.00163
658.5 	0.00187
658.4 	0.00171
658.3 	0.00155
658.2 	0.00139
658.1 	0.00123
658.0 	0.00107
657.9 	0.00117
657.8 	0.00127
657.7 	0.00137
657.6 	0.00146
657.5 	0.00156
657.4 	0.00175
657.3 	0.00195
657.2 	0.00214
657.1 	0.00233
657.0 	0.00253
656.9 	0.00216
656.8 	0.00179
656.7 	0.00142
656.6 	0.00105
656.5 	0.00069
656.4 	0.0014
656.3 	0.00211
656.2 	0.00282
656.1 	0.00353
656.0 	0.00424
655.9 	0.0036
655.8 	0.00296
655.7 	0.00232
655.6 	0.00168
655.5 	0.00105
655.4 	0.00147
655.3 	0.0019
655.2 	0.00232
655.1 	0.00275
655.0 	0.00317
654.9 	0.00262
654.8 	0.00207
654.7 	0.00152
654.6 	0.00097
654.5 	0.00042
654.4 	0.00036
654.3 	0.00031
654.2 	0.00025
654.1 	0.00019
654.0 	0.00014
653.9 	0.00058
653.8 	0.00101
653.7 	0.00145
653.6 	0.00189
653.5 	0.00233
653.4 	0.00199
653.3 	0.00165
653.2 	0.00131
653.1 	0.00097
653.0 	0.00063
652.9 	0.00062
652.8 	0.00061
652.7 	0.0006
652.6 	0.00059
652.5 	0.00058
652.4 	0.00062
652.3 	0.00067
652.2 	0.00072
652.1 	0.00077
652.0 	0.00082
651.9 	0.00089
651.8 	0.00097
651.7 	0.00104
651.6 	0.00112
651.5 	0.00119
651.4 	0.0011
651.3 	0.00101
651.2 	0.00091
651.1 	0.00082
651.0 	0.00073
650.9 	0.00062
650.8 	0.00051
650.7 	0.0004
650.6 	0.0003
650.5 	0.00019
650.4 	0.00015
650.3 	0.00011
650.2 	8E-05
650.1 	4E-05
650.0 	0
649.9 	0.00017
649.8 	0.00034
649.7 	0.00051
649.6 	0.00068
649.5 	0.00085
649.4 	0.00069
649.3 	0.00053
649.2 	0.00037
649.1 	0.00021
649.0 	5E-05
648.9 	0.00049
648.8 	0.00092
648.7 	0.00136
648.6 	0.0018
648.5 	0.00223
648.4 	0.00218
648.3 	0.00213
648.2 	0.00208
648.1 	0.00203
648.0 	0.00198
647.9 	0.00187
647.8 	0.00176
647.7 	0.00165
647.6 	0.00154
647.5 	0.00143
647.4 	0.00153
647.3 	0.00162
647.2 	0.00172
647.1 	0.00182
647.0 	0.00191
646.9 	0.00166
646.8 	0.0014
646.7 	0.00115
646.6 	0.0009
646.5 	0.00064
646.4 	0.00069
646.3 	0.00074
646.2 	0.00079
646.1 	0.00084
646.0 	0.0009
645.9 	0.00082
645.8 	0.00075
645.7 	0.00068
645.6 	0.00061
645.5 	0.00054
645.4 	0.00072
645.3 	0.0009
645.2 	0.00108
645.1 	0.00126
645.0 	0.00144
644.9 	0.00133
644.8 	0.00121
644.7 	0.00109
644.6 	0.00098
644.5 	0.00086
644.4 	0.00089
644.3 	0.00092
644.2 	0.00095
644.1 	0.00097
644.0 	0.001
643.9 	0.00081
643.8 	0.00062
643.7 	0.00043
643.6 	0.00024
643.5 	5E-05
643.4 	0.00011
643.3 	0.00018
643.2 	0.00024
643.1 	0.00031
643.0 	0.00037
642.9 	0.0004
642.8 	0.00043
642.7 	0.00046
642.6 	0.00049
642.5 	0.00052
642.4 	0.00053
642.3 	0.00054
642.2 	0.00055
642.1 	0.00056
642.0 	0.00057
641.9 	0.00054
641.8 	0.00052
641.7 	0.00049
641.6 	0.00047
641.5 	0.00044
641.4 	0.00041
641.3 	0.00037
641.2 	0.00034
641.1 	0.0003
641.0 	0.00027
640.9 	0.00064
640.8 	0.00101
640.7 	0.00137
640.6 	0.00174
640.5 	0.00211
640.4 	0.00199
640.3 	0.00188
640.2 	0.00176
640.1 	0.00164
640.0 	0.00152
639.9 	0.00134
639.8 	0.00115
639.7 	0.00097
639.6 	0.00079
639.5 	0.0006
639.4 	0.00072
639.3 	0.00083
639.2 	0.00094
639.1 	0.00106
639.0 	0.00117
638.9 	0.00121
638.8 	0.00125
638.7 	0.00128
638.6 	0.00132
638.5 	0.00136
638.4 	0.00138
638.3 	0.00139
638.2 	0.00141
638.1 	0.00143
638.0 	0.00145
637.9 	0.00166
637.8 	0.00187
637.7 	0.00208
637.6 	0.00229
637.5 	0.0025
637.4 	0.00246
637.3 	0.00242
637.2 	0.00238
637.1 	0.00234
637.0 	0.0023
636.9 	0.00213
636.8 	0.00195
636.7 	0.00178
636.6 	0.0016
636.5 	0.00143
636.4 	0.00135
636.3 	0.00127
636.2 	0.00118
636.1 	0.0011
636.0 	0.00102
635.9 	0.00124
635.8 	0.00146
635.7 	0.00168
635.6 	0.00189
635.5 	0.00211
635.4 	0.00171
635.3 	0.00131
635.2 	0.00091
635.1 	0.00051
635.0 	0.00012
634.9 	0.00039
634.8 	0.00066
634.7 	0.00093
634.6 	0.0012
634.5 	0.00147
634.4 	0.00128
634.3 	0.00108
634.2 	0.00089
634.1 	0.0007
634.0 	0.0005
633.9 	0.0005
633.8 	0.00049
633.7 	0.00049
633.6 	0.00048
633.5 	0.00048
633.4 	0.00075
633.3 	0.00101
633.2 	0.00128
633.1 	0.00155
633.0 	0.00182
632.9 	0.00151
632.8 	0.0012
632.7 	0.00089
632.6 	0.00058
632.5 	0.00027
632.4 	0.00022
632.3 	0.00017
632.2 	0.00012
632.1 	7E-05
632.0 	2E-05
631.9 	0.00012
631.8 	0.00022
631.7 	0.00032
631.6 	0.00042
631.5 	0.00052
631.4 	0.0008
631.3 	0.00108
631.2 	0.00136
631.1 	0.00164
631.0 	0.00192
630.9 	0.00188
630.8 	0.00184
630.7 	0.0018
630.6 	0.00177
630.5 	0.00173
630.4 	0.00146
630.3 	0.00119
630.2 	0.00092
630.1 	0.00065
630.0 	0.00038
629.9 	0.00052
629.8 	0.00067
629.7 	0.00082
629.6 	0.00097
629.5 	0.00112
629.4 	0.00141
629.3 	0.00169
629.2 	0.00197
629.1 	0.00226
629.0 	0.00254
628.9 	0.00231
628.8 	0.00207
628.7 	0.00184
628.6 	0.00161
628.5 	0.00138
628.4 	0.00153
628.3 	0.00169
628.2 	0.00184
628.1 	0.002
628.0 	0.00215
627.9 	0.00182
627.8 	0.00148
627.7 	0.00115
627.6 	0.00081
627.5 	0.00048
627.4 	0.00068
627.3 	0.00089
627.2 	0.0011
627.1 	0.0013
627.0 	0.00151
626.9 	0.00171
626.8 	0.00191
626.7 	0.00211
626.6 	0.00231
626.5 	0.00251
626.4 	0.00211
626.3 	0.0017
626.2 	0.0013
626.1 	0.0009
626.0 	0.00049
625.9 	0.0005
625.8 	0.00052
625.7 	0.00053
625.6 	0.00054
625.5 	0.00055
625.4 	0.0006
625.3 	0.00065
625.2 	0.00069
625.1 	0.00074
625.0 	0.00079
624.9 	0.00073
624.8 	0.00067
624.7 	0.00062
624.6 	0.00056
624.5 	0.00051
624.4 	0.00079
624.3 	0.00106
624.2 	0.00134
624.1 	0.00162
624.0 	0.0019
623.9 	0.0018
623.8 	0.00171
623.7 	0.00161
623.6 	0.00152
623.5 	0.00143
623.4 	0.00128
623.3 	0.00114
623.2 	0.001
623.1 	0.00086
623.0 	0.00071
622.9 	0.00106
622.8 	0.0014
622.7 	0.00175
622.6 	0.0021
622.5 	0.00244
622.4 	0.00236
622.3 	0.00227
622.2 	0.00218
622.1 	0.0021
622.0 	0.00201
621.9 	0.0019
621.8 	0.0018
621.7 	0.00169
621.6 	0.00158
621.5 	0.00147
621.4 	0.00132
621.3 	0.00117
621.2 	0.00102
621.1 	0.00087
621.0 	0.00072
620.9 	0.001
620.8 	0.00128
620.7 	0.00156
620.6 	0.00184
620.5 	0.00212
620.4 	0.00187
620.3 	0.00163
620.2 	0.00139
620.1 	0.00114
620.0 	0.0009
619.9 	0.00109
619.8 	0.00127
619.7 	0.00146
619.6 	0.00164
619.5 	0.00183
619.4 	0.00177
619.3 	0.0017
619.2 	0.00164
619.1 	0.00158
619.0 	0.00151
618.9 	0.00136
618.8 	0.00121
618.7 	0.00106
618.6 	0.00091
618.5 	0.00076
618.4 	0.00069
618.3 	0.00062
618.2 	0.00055
618.1 	0.00048
618.0 	0.00041
617.9 	0.00045
617.8 	0.0005
617.7 	0.00054
617.6 	0.00058
617.5 	0.00063
617.4 	0.0006
617.3 	0.00057
617.2 	0.00054
617.1 	0.00051
617.0 	0.00049
616.9 	0.00063
616.8 	0.00077
616.7 	0.00091
616.6 	0.00105
616.5 	0.00119
616.4 	0.00105
616.3 	0.0009
616.2 	0.00076
616.1 	0.00062
616.0 	0.00048
615.9 	0.00059
615.8 	0.00071
615.7 	0.00082
615.6 	0.00093
615.5 	0.00104
615.4 	0.00084
615.3 	0.00064
615.2 	0.00044
615.1 	0.00024
615.0 	4E-05
614.9 	9E-05
614.8 	0.00014
614.7 	0.00019
614.6 	0.00025
614.5 	0.0003
614.4 	0.00025
614.3 	0.00021
614.2 	0.00017
614.1 	0.00012
614.0 	8E-05
613.9 	0.00065
613.8 	0.00122
613.7 	0.00178
613.6 	0.00235
613.5 	0.00292
613.4 	0.00284
613.3 	0.00276
613.2 	0.00268
613.1 	0.0026
613.0 	0.00252
612.9 	0.00217
612.8 	0.00181
612.7 	0.00146
612.6 	0.0011
612.5 	0.00075
612.4 	0.00086
612.3 	0.00097
612.2 	0.00108
612.1 	0.0012
612.0 	0.00131
611.9 	0.00152
611.8 	0.00174
611.7 	0.00195
611.6 	0.00217
611.5 	0.00238
611.4 	0.002
611.3 	0.00161
611.2 	0.00123
611.1 	0.00085
611.0 	0.00047
610.9 	0.00052
610.8 	0.00058
610.7 	0.00064
610.6 	0.0007
610.5 	0.00075
610.4 	0.00107
610.3 	0.00139
610.2 	0.0017
610.1 	0.00202
610.0 	0.00234
609.9 	0.00226
609.8 	0.00219
609.7 	0.00211
609.6 	0.00204
609.5 	0.00196
609.4 	0.00164
609.3 	0.00132
609.2 	0.00099
609.1 	0.00067
609.0 	0.00035
608.9 	0.00059
608.8 	0.00084
608.7 	0.00109
608.6 	0.00134
608.5 	0.00159
608.4 	0.00161
608.3 	0.00163
608.2 	0.00165
608.1 	0.00168
608.0 	0.0017
607.9 	0.00139
607.8 	0.00107
607.7 	0.00076
607.6 	0.00045
607.5 	0.00013
607.4 	0.00045
607.3 	0.00077
607.2 	0.00109
607.1 	0.00141
607.0 	0.00173
606.9 	0.00159
606.8 	0.00145
606.7 	0.00131
606.6 	0.00116
606.5 	0.00102
606.4 	0.00085
606.3 	0.00067
606.2 	0.0005
606.1 	0.00033
606.0 	0.00015
605.9 	0.00052
605.8 	0.00089
605.7 	0.00126
605.6 	0.00163
605.5 	0.002
605.4 	0.00198
605.3 	0.00196
605.2 	0.00194
605.1 	0.00192
605.0 	0.0019
604.9 	0.00174
604.8 	0.00158
604.7 	0.00142
604.6 	0.00126
604.5 	0.00111
604.4 	0.00092
604.3 	0.00073
604.2 	0.00054
604.1 	0.00036
604.0 	0.00017
603.9 	0.00088
603.8 	0.00159
603.7 	0.0023
603.6 	0.003
603.5 	0.00371
603.4 	0.00321
603.3 	0.00271
603.2 	0.00221
603.1 	0.00171
603.0 	0.00121
602.9 	0.00127
602.8 	0.00133
602.7 	0.00139
602.6 	0.00144
602.5 	0.0015
602.4 	0.00127
602.3 	0.00103
602.2 	0.00079
602.1 	0.00055
602.0 	0.00032
601.9 	0.00041
601.8 	0.0005
601.7 	0.00059
601.6 	0.00068
601.5 	0.00078
601.4 	0.00078
601.3 	0.00079
601.2 	0.0008
601.1 	0.0008
601.0 	0.00081
600.9 	0.00101
600.8 	0.00121
600.7 	0.00141
600.6 	0.0016
600.5 	0.0018
600.4 	0.00207
600.3 	0.00235
600.2 	0.00262
600.1 	0.00289
600.0 	0.00316
599.9 	0.00265
599.8 	0.00213
599.7 	0.00162
599.6 	0.0011
599.5 	0.00059
599.4 	0.00083
599.3 	0.00108
599.2 	0.00132
599.1 	0.00156
599.0 	0.00181
598.9 	0.00168
598.8 	0.00155
598.7 	0.00142
598.6 	0.0013
598.5 	0.00117
598.4 	0.00094
598.3 	0.00071
598.2 	0.00048
598.1 	0.00025
598.0 	2E-05
597.9 	0.00029
597.8 	0.00057
597.7 	0.00085
597.6 	0.00112
597.5 	0.0014
597.4 	0.00134
597.3 	0.00128
597.2 	0.00122
597.1 	0.00116
597.0 	0.00111
596.9 	0.00097
596.8 	0.00083
596.7 	0.00069
596.6 	0.00055
596.5 	0.00042
596.4 	0.00056
596.3 	0.0007
596.2 	0.00085
596.1 	0.00099
596.0 	0.00114
595.9 	0.00105
595.8 	0.00096
595.7 	0.00088
595.6 	0.00079
595.5 	0.0007
595.4 	0.00077
595.3 	0.00084
595.2 	0.00091
595.1 	0.00097
595.0 	0.00104
594.9 	0.00125
594.8 	0.00146
594.7 	0.00167
594.6 	0.00188
594.5 	0.00208
594.4 	0.0017
594.3 	0.00131
594.2 	0.00093
594.1 	0.00055
594.0 	0.00016
593.9 	0.00036
593.8 	0.00055
593.7 	0.00075
593.6 	0.00095
593.5 	0.00115
593.4 	0.00104
593.3 	0.00093
593.2 	0.00082
593.1 	0.00071
593.0 	0.00061
592.9 	0.00063
592.8 	0.00066
592.7 	0.00068
592.6 	0.00071
592.5 	0.00073
592.4 	0.00078
592.3 	0.00083
592.2 	0.00088
592.1 	0.00093
592.0 	0.00098
591.9 	0.00084
591.8 	0.0007
591.7 	0.00056
591.6 	0.00042
591.5 	0.00028
591.4 	0.00034
591.3 	0.0004
591.2 	0.00046
591.1 	0.00052
591.0 	0.00059
590.9 	0.00065
590.8 	0.00071
590.7 	0.00078
590.6 	0.00084
590.5 	0.0009
590.4 	0.00099
590.3 	0.00108
590.2 	0.00117
590.1 	0.00126
590.0 	0.00134
589.9 	0.00127
589.8 	0.00119
589.7 	0.00111
589.6 	0.00103
589.5 	0.00095
589.4 	0.00107
589.3 	0.00118
589.2 	0.00129
589.1 	0.0014
589.0 	0.00151
588.9 	0.0015
588.8 	0.00149
588.7 	0.00147
588.6 	0.00146
588.5 	0.00144
588.4 	0.00143
588.3 	0.00142
588.2 	0.00141
588.1 	0.0014
588.0 	0.00139
587.9 	0.00125
587.8 	0.00111
587.7 	0.00098
587.6 	0.00084
587.5 	0.0007
587.4 	0.00087
587.3 	0.00103
587.2 	0.00119
587.1 	0.00136
587.0 	0.00152
586.9 	0.00139
586.8 	0.00126
586.7 	0.00112
586.6 	0.00099
586.5 	0.00086
586.4 	0.00079
586.3 	0.00073
586.2 	0.00067
586.1 	0.0006
586.0 	0.00054
585.9 	0.00044
585.8 	0.00034
585.7 	0.00024
585.6 	0.00014
585.5 	4E-05
585.4 	0.00014
585.3 	0.00024
585.2 	0.00035
585.1 	0.00045
585.0 	0.00056
584.9 	0.00092
584.8 	0.00128
584.7 	0.00164
584.6 	0.002
584.5 	0.00236
584.4 	0.00197
584.3 	0.00157
584.2 	0.00117
584.1 	0.00078
584.0 	0.00038
583.9 	0.00064
583.8 	0.00089
583.7 	0.00115
583.6 	0.00141
583.5 	0.00167
583.4 	0.0016
583.3 	0.00152
583.2 	0.00146
583.1 	0.00138
583.0 	0.00132
582.9 	0.00122
582.8 	0.00113
582.7 	0.00104
582.6 	0.00095
582.5 	0.00086
582.4 	0.00087
582.3 	0.00088
582.2 	0.00088
582.1 	0.00089
582.0 	0.0009
581.9 	0.00093
581.8 	0.00097
581.7 	0.00101
581.6 	0.00105
581.5 	0.00109
581.4 	0.001
581.3 	0.00091
581.2 	0.00083
581.1 	0.00074
581.0 	0.00065
580.9 	0.00084
580.8 	0.00102
580.7 	0.00121
580.6 	0.00139
580.5 	0.00158
580.4 	0.00127
580.3 	0.00095
580.2 	0.00064
580.1 	0.00033
580.0 	2E-05
579.9 	0.00013
579.8 	0.00024
579.7 	0.00036
579.6 	0.00047
579.5 	0.00058
579.4 	0.00079
579.3 	0.001
579.2 	0.00121
579.1 	0.00142
579.0 	0.00163
578.9 	0.00131
578.8 	0.001
578.7 	0.00068
578.6 	0.00037
578.5 	5E-05
578.4 	0.00035
578.3 	0.00065
578.2 	0.00095
578.1 	0.00125
578.0 	0.00155
577.9 	0.00145
577.8 	0.00134
577.7 	0.00123
577.6 	0.00113
577.5 	0.00102
577.4 	0.00097
577.3 	0.00092
577.2 	0.00087
577.1 	0.00082
577.0 	0.00077
576.9 	0.0008
576.8 	0.00084
576.7 	0.00088
576.6 	0.00091
576.5 	0.00095
576.4 	0.00097
576.3 	0.00099
576.2 	0.00101
576.1 	0.00103
576.0 	0.00105
575.9 	0.00093
575.8 	0.0008
575.7 	0.00068
575.6 	0.00055
575.5 	0.00042
575.4 	0.00073
575.3 	0.00103
575.2 	0.00133
575.1 	0.00163
575.0 	0.00193
574.9 	0.0016
574.8 	0.00127
574.7 	0.00093
574.6 	0.0006
574.5 	0.00027
574.4 	0.00026
574.3 	0.00024
574.2 	0.00023
574.1 	0.00022
574.0 	0.0002
573.9 	0.00025
573.8 	0.0003
573.7 	0.00035
573.6 	0.00041
573.5 	0.00046
573.4 	0.00074
573.3 	0.00103
573.2 	0.00132
573.1 	0.0016
573.0 	0.00189
572.9 	0.0017
572.8 	0.0015
572.7 	0.00131
572.6 	0.00112
572.5 	0.00093
572.4 	0.00102
572.3 	0.00111
572.2 	0.0012
572.1 	0.00129
572.0 	0.00138
571.9 	0.00112
571.8 	0.00086
571.7 	0.0006
571.6 	0.00034
571.5 	8E-05
571.4 	0.00028
571.3 	0.00047
571.2 	0.00066
571.1 	0.00085
571.0 	0.00104
570.9 	0.00117
570.8 	0.0013
570.7 	0.00143
570.6 	0.00156
570.5 	0.00169
570.4 	0.0019
570.3 	0.00212
570.2 	0.00233
570.1 	0.00254
570.0 	0.00275
569.9 	0.00245
569.8 	0.00214
569.7 	0.00184
569.6 	0.00154
569.5 	0.00124
569.4 	0.00152
569.3 	0.00179
569.2 	0.00207
569.1 	0.00235
569.0 	0.00263
568.9 	0.00211
568.8 	0.00159
568.7 	0.00107
568.6 	0.00055
568.5 	3E-05
568.4 	5E-05
568.3 	7E-05
568.2 	8E-05
568.1 	0.0001
568.0 	0.00012
567.9 	0.0005
567.8 	0.00088
567.7 	0.00126
567.6 	0.00164
567.5 	0.00202
567.4 	0.00181
567.3 	0.0016
567.2 	0.0014
567.1 	0.00119
567.0 	0.00098
566.9 	0.00104
566.8 	0.0011
566.7 	0.00116
566.6 	0.00122
566.5 	0.00128
566.4 	0.00104
566.3 	0.0008
566.2 	0.00056
566.1 	0.00032
566.0 	8E-05
565.9 	0.00039
565.8 	0.00069
565.7 	0.001
565.6 	0.0013
565.5 	0.00161
565.4 	0.00129
565.3 	0.00098
565.2 	0.00066
565.1 	0.00035
565.0 	3E-05
564.9 	0.0001
564.8 	0.00017
564.7 	0.00023
564.6 	0.0003
564.5 	0.00036
564.4 	0.00042
564.3 	0.00048
564.2 	0.00053
564.1 	0.00059
564.0 	0.00065
563.9 	0.00054
563.8 	0.00043
563.7 	0.00032
563.6 	0.00021
563.5 	0.0001
563.4 	9E-05
563.3 	9E-05
563.2 	8E-05
563.1 	7E-05
563.0 	7E-05
562.9 	0.00041
562.8 	0.00075
562.7 	0.0011
562.6 	0.00144
562.5 	0.00179
562.4 	0.00151
562.3 	0.00124
562.2 	0.00097
562.1 	0.0007
562.0 	0.00043
561.9 	0.00039
561.8 	0.00036
561.7 	0.00032
561.6 	0.00028
561.5 	0.00025
561.4 	0.00049
561.3 	0.00072
561.2 	0.00096
561.1 	0.0012
561.0 	0.00144
560.9 	0.00126
560.8 	0.00109
560.7 	0.00092
560.6 	0.00075
560.5 	0.00058
560.4 	0.00051
560.3 	0.00045
560.2 	0.00039
560.1 	0.00033
560.0 	0.00026
559.9 	0.00061
559.8 	0.00095
559.7 	0.00129
559.6 	0.00164
559.5 	0.00198
559.4 	0.00191
559.3 	0.00184
559.2 	0.00177
559.1 	0.0017
559.0 	0.00163
558.9 	0.00132
558.8 	0.00101
558.7 	0.0007
558.6 	0.00039
558.5 	8E-05
558.4 	0.00036
558.3 	0.00064
558.2 	0.00092
558.1 	0.0012
558.0 	0.00148
557.9 	0.00131
557.8 	0.00114
557.7 	0.00097
557.6 	0.0008
557.5 	0.00063
557.4 	0.00076
557.3 	0.00089
557.2 	0.00103
557.1 	0.00116
557.0 	0.0013
556.9 	0.00125
556.8 	0.00121
556.7 	0.00116
556.6 	0.00111
556.5 	0.00107
556.4 	0.00108
556.3 	0.0011
556.2 	0.00111
556.1 	0.00112
556.0 	0.00114
555.9 	0.00137
555.8 	0.0016
555.7 	0.00183
555.6 	0.00207
555.5 	0.0023
555.4 	0.00209
555.3 	0.00188
555.2 	0.00167
555.1 	0.00146
555.0 	0.00125
554.9 	0.00107
554.8 	0.00089
554.7 	0.00072
554.6 	0.00054
554.5 	0.00036
554.4 	0.0005
554.3 	0.00063
554.2 	0.00077
554.1 	0.0009
554.0 	0.00104
553.9 	0.00136
553.8 	0.00168
553.7 	0.002
553.6 	0.00232
553.5 	0.00264
553.4 	0.00213
553.3 	0.00162
553.2 	0.00111
553.1 	0.00059
553.0 	8E-05
552.9 	0.00024
552.8 	0.00039
552.7 	0.00055
552.6 	0.0007
552.5 	0.00086
552.4 	0.00075
552.3 	0.00065
552.2 	0.00055
552.1 	0.00045
552.0 	0.00035
551.9 	0.00073
551.8 	0.00111
551.7 	0.0015
551.6 	0.00188
551.5 	0.00227
551.4 	0.00198
551.3 	0.00168
551.2 	0.00139
551.1 	0.0011
551.0 	0.0008
550.9 	0.00085
550.8 	0.0009
550.7 	0.00095
550.6 	0.001
550.5 	0.00105
550.4 	0.00091
550.3 	0.00076
550.2 	0.00062
550.1 	0.00047
550.0 	0.00033
549.9 	0.00058
549.8 	0.00083
549.7 	0.00109
549.6 	0.00134
549.5 	0.00159
549.4 	0.00156
549.3 	0.00153
549.2 	0.0015
549.1 	0.00147
549.0 	0.00145
548.9 	0.00125
548.8 	0.00106
548.7 	0.00086
548.6 	0.00067
548.5 	0.00048
548.4 	0.00087
548.3 	0.00127
548.2 	0.00166
548.1 	0.00205
548.0 	0.00245
547.9 	0.00223
547.8 	0.00201
547.7 	0.00179
547.6 	0.00157
547.5 	0.00135
547.4 	0.00134
547.3 	0.00134
547.2 	0.00134
547.1 	0.00133
547.0 	0.00133
546.9 	0.00125
546.8 	0.00116
546.7 	0.00107
546.6 	0.00099
546.5 	0.0009
546.4 	0.00109
546.3 	0.00129
546.2 	0.00148
546.1 	0.00167
546.0 	0.00186
545.9 	0.00171
545.8 	0.00156
545.7 	0.0014
545.6 	0.00125
545.5 	0.0011
545.4 	0.00108
545.3 	0.00106
545.2 	0.00104
545.1 	0.00102
545.0 	0.001
544.9 	0.00113
544.8 	0.00127
544.7 	0.0014
544.6 	0.00153
544.5 	0.00166
544.4 	0.00147
544.3 	0.00128
544.2 	0.00109
544.1 	0.0009
544.0 	0.00071
543.9 	0.00096
543.8 	0.00122
543.7 	0.00148
543.6 	0.00174
543.5 	0.00199
543.4 	0.00187
543.3 	0.00174
543.2 	0.00161
543.1 	0.00148
543.0 	0.00135
542.9 	0.00144
542.8 	0.00152
542.7 	0.00161
542.6 	0.0017
542.5 	0.00178
542.4 	0.00143
542.3 	0.00108
542.2 	0.00073
542.1 	0.00038
542.0 	3E-05
541.9 	0.00028
541.8 	0.00053
541.7 	0.00078
541.6 	0.00102
541.5 	0.00127
541.4 	0.00124
541.3 	0.0012
541.2 	0.00116
541.1 	0.00113
541.0 	0.00109
540.9 	0.00093
540.8 	0.00078
540.7 	0.00062
540.6 	0.00047
540.5 	0.00031
540.4 	0.00103
540.3 	0.00175
540.2 	0.00247
540.1 	0.00319
540.0 	0.00391
539.9 	0.00326
539.8 	0.00261
539.7 	0.00197
539.6 	0.00132
539.5 	0.00068
539.4 	0.00103
539.3 	0.00138
539.2 	0.00173
539.1 	0.00209
539.0 	0.00244
538.9 	0.00202
538.8 	0.0016
538.7 	0.00118
538.6 	0.00077
538.5 	0.00035
538.4 	0.00063
538.3 	0.00091
538.2 	0.00119
538.1 	0.00147
538.0 	0.00175
537.9 	0.00185
537.8 	0.00196
537.7 	0.00207
537.6 	0.00218
537.5 	0.00229
537.4 	0.00195
537.3 	0.00161
537.2 	0.00128
537.1 	0.00094
537.0 	0.0006
536.9 	0.00071
536.8 	0.00082
536.7 	0.00093
536.6 	0.00104
536.5 	0.00115
536.4 	0.00093
536.3 	0.00072
536.2 	0.0005
536.1 	0.00028
536.0 	7E-05
535.9 	0.00016
535.8 	0.00025
535.7 	0.00034
535.6 	0.00043
535.5 	0.00052
535.4 	0.00092
535.3 	0.00132
535.2 	0.00172
535.1 	0.00212
535.0 	0.00252
534.9 	0.00218
534.8 	0.00185
534.7 	0.00151
534.6 	0.00117
534.5 	0.00084
534.4 	0.001
534.3 	0.00116
534.2 	0.00132
534.1 	0.00148
534.0 	0.00164
533.9 	0.00142
533.8 	0.0012
533.7 	0.00098
533.6 	0.00076
533.5 	0.00054
533.4 	0.00074
533.3 	0.00095
533.2 	0.00115
533.1 	0.00135
533.0 	0.00156
532.9 	0.00131
532.8 	0.00106
532.7 	0.0008
532.6 	0.00055
532.5 	0.0003
532.4 	0.00053
532.3 	0.00076
532.2 	0.00099
532.1 	0.00122
532.0 	0.00144
531.9 	0.00149
531.8 	0.00153
531.7 	0.00158
531.6 	0.00162
531.5 	0.00166
531.4 	0.00161
531.3 	0.00156
531.2 	0.00151
531.1 	0.00146
531.0 	0.00141
530.9 	0.0016
530.8 	0.00179
530.7 	0.00197
530.6 	0.00216
530.5 	0.00234
530.4 	0.00218
530.3 	0.00201
530.2 	0.00184
530.1 	0.00167
530.0 	0.0015
529.9 	0.00154
529.8 	0.00158
529.7 	0.00161
529.6 	0.00165
529.5 	0.00169
529.4 	0.00145
529.3 	0.00121
529.2 	0.00097
529.1 	0.00073
529.0 	0.00049
528.9 	0.00076
528.8 	0.00104
528.7 	0.00131
528.6 	0.00159
528.5 	0.00186
528.4 	0.00153
528.3 	0.0012
528.2 	0.00087
528.1 	0.00053
528.0 	0.0002
527.9 	0.00018
527.8 	0.00016
527.7 	0.00014
527.6 	0.00012
527.5 	0.0001
527.4 	0.0006
527.3 	0.00109
527.2 	0.00158
527.1 	0.00208
527.0 	0.00257
526.9 	0.0021
526.8 	0.00164
526.7 	0.00117
526.6 	0.0007
526.5 	0.00024
526.4 	0.0002
526.3 	0.00016
526.2 	0.00013
526.1 	9E-05
526.0 	5E-05
525.9 	0.00039
525.8 	0.00073
525.7 	0.00107
525.6 	0.0014
525.5 	0.00174
525.4 	0.00159
525.3 	0.00144
525.2 	0.00129
525.1 	0.00114
525.0 	0.00099
524.9 	0.00134
524.8 	0.00169
524.7 	0.00203
524.6 	0.00238
524.5 	0.00273
524.4 	0.00283
524.3 	0.00294
524.2 	0.00305
524.1 	0.00316
524.0 	0.00326
523.9 	0.00289
523.8 	0.00252
523.7 	0.00214
523.6 	0.00177
523.5 	0.00139
523.4 	0.00113
523.3 	0.00086
523.2 	0.0006
523.1 	0.00033
523.0 	7E-05
522.9 	0.00013
522.8 	0.00019
522.7 	0.00026
522.6 	0.00032
522.5 	0.00038
522.4 	0.00042
522.3 	0.00046
522.2 	0.00049
522.1 	0.00053
522.0 	0.00057
521.9 	0.00054
521.8 	0.0005
521.7 	0.00047
521.6 	0.00043
521.5 	0.0004
521.4 	0.00048
521.3 	0.00056
521.2 	0.00064
521.1 	0.00072
521.0 	0.0008
520.9 	0.001
520.8 	0.00119
520.7 	0.00139
520.6 	0.00158
520.5 	0.00178
520.4 	0.00153
520.3 	0.00128
520.2 	0.00102
520.1 	0.00077
520.0 	0.00052
519.9 	0.00066
519.8 	0.0008
519.7 	0.00093
519.6 	0.00107
519.5 	0.00121
519.4 	0.00117
519.3 	0.00114
519.2 	0.00111
519.1 	0.00108
519.0 	0.00105
518.9 	0.00104
518.8 	0.00102
518.7 	0.00101
518.6 	0.001
518.5 	0.00098
518.4 	0.00111
518.3 	0.00124
518.2 	0.00136
518.1 	0.00149
518.0 	0.00162
517.9 	0.00146
517.8 	0.00131
517.7 	0.00116
517.6 	0.001
517.5 	0.00085
517.4 	0.00088
517.3 	0.00092
517.2 	0.00095
517.1 	0.00099
517.0 	0.00103
516.9 	0.00099
516.8 	0.00095
516.7 	0.00091
516.6 	0.00087
516.5 	0.00083
516.4 	0.00071
516.3 	0.00058
516.2 	0.00046
516.1 	0.00034
516.0 	0.00021
515.9 	0.00047
515.8 	0.00073
515.7 	0.00099
515.6 	0.00125
515.5 	0.00152
515.4 	0.00151
515.3 	0.0015
515.2 	0.00149
515.1 	0.00148
515.0 	0.00147
514.9 	0.00145
514.8 	0.00142
514.7 	0.0014
514.6 	0.00138
514.5 	0.00136
514.4 	0.00147
514.3 	0.00158
514.2 	0.0017
514.1 	0.00181
514.0 	0.00192
513.9 	0.00184
513.8 	0.00176
513.7 	0.00167
513.6 	0.00159
513.5 	0.00151
513.4 	0.0014
513.3 	0.00128
513.2 	0.00117
513.1 	0.00105
513.0 	0.00094
512.9 	0.00092
512.8 	0.0009
512.7 	0.00089
512.6 	0.00087
512.5 	0.00085
512.4 	0.00085
512.3 	0.00084
512.2 	0.00084
512.1 	0.00084
512.0 	0.00083
511.9 	0.00088
511.8 	0.00092
511.7 	0.00097
511.6 	0.00101
511.5 	0.00106
511.4 	0.00116
511.3 	0.00125
511.2 	0.00135
511.1 	0.00145
511.0 	0.00155
510.9 	0.00147
510.8 	0.00138
510.7 	0.00129
510.6 	0.00121
510.5 	0.00112
510.4 	0.001
510.3 	0.00088
510.2 	0.00077
510.1 	0.00065
510.0 	0.00053
509.9 	0.00086
509.8 	0.00118
509.7 	0.00151
509.6 	0.00183
509.5 	0.00216
509.4 	0.00218
509.3 	0.0022
509.2 	0.00223
509.1 	0.00225
509.0 	0.00227
508.9 	0.00185
508.8 	0.00143
508.7 	0.00101
508.6 	0.00059
508.5 	0.00017
508.4 	0.00028
508.3 	0.00038
508.2 	0.00049
508.1 	0.0006
508.0 	0.00071
507.9 	0.00069
507.8 	0.00068
507.7 	0.00066
507.6 	0.00065
507.5 	0.00063
507.4 	0.0007
507.3 	0.00077
507.2 	0.00084
507.1 	0.00091
507.0 	0.00097
506.9 	0.00106
506.8 	0.00115
506.7 	0.00123
506.6 	0.00132
506.5 	0.00141
506.4 	0.00131
506.3 	0.00121
506.2 	0.00111
506.1 	0.00101
506.0 	0.00091
505.9 	0.00078
505.8 	0.00065
505.7 	0.00052
505.6 	0.00039
505.5 	0.00027
505.4 	0.00043
505.3 	0.0006
505.2 	0.00077
505.1 	0.00093
505.0 	0.0011
504.9 	0.00098
504.8 	0.00085
504.7 	0.00073
504.6 	0.0006
504.5 	0.00048
504.4 	0.00082
504.3 	0.00117
504.2 	0.00151
504.1 	0.00185
504.0 	0.0022
503.9 	0.00182
503.8 	0.00143
503.7 	0.00105
503.6 	0.00067
503.5 	0.00029
503.4 	0.0004
503.3 	0.0005
503.2 	0.00061
503.1 	0.00072
503.0 	0.00083
502.9 	0.00083
502.8 	0.00084
502.7 	0.00084
502.6 	0.00085
502.5 	0.00085
502.4 	0.00084
502.3 	0.00083
502.2 	0.00082
502.1 	0.00081
502.0 	0.0008
501.9 	0.00069
501.8 	0.00059
501.7 	0.00048
501.6 	0.00038
501.5 	0.00027
501.4 	0.00034
501.3 	0.00041
501.2 	0.00047
501.1 	0.00054
501.0 	0.00061
500.9 	0.00087
500.8 	0.00113
500.7 	0.00139
500.6 	0.00165
500.5 	0.00191
500.4 	0.00154
500.3 	0.00118
500.2 	0.00081
500.1 	0.00044
500.0 	8E-05
499.9 	0.00038
499.8 	0.00068
499.7 	0.00098
499.6 	0.00128
499.5 	0.00159
499.4 	0.00187
499.3 	0.00216
499.2 	0.00245
499.1 	0.00274
499.0 	0.00303
498.9 	0.00273
498.8 	0.00243
498.7 	0.00214
498.6 	0.00184
498.5 	0.00154
498.4 	0.00135
498.3 	0.00116
498.2 	0.00096
498.1 	0.00077
498.0 	0.00058
497.9 	0.0008
497.8 	0.00103
497.7 	0.00125
497.6 	0.00147
497.5 	0.0017
497.4 	0.0017
497.3 	0.0017
497.2 	0.0017
497.1 	0.0017
497.0 	0.0017
496.9 	0.00148
496.8 	0.00127
496.7 	0.00105
496.6 	0.00083
496.5 	0.00061
496.4 	0.00072
496.3 	0.00083
496.2 	0.00094
496.1 	0.00105
496.0 	0.00117
495.9 	0.00106
495.8 	0.00096
495.7 	0.00086
495.6 	0.00076
495.5 	0.00066
495.4 	0.00069
495.3 	0.00072
495.2 	0.00075
495.1 	0.00078
495.0 	0.00081
494.9 	0.00077
494.8 	0.00073
494.7 	0.0007
494.6 	0.00066
494.5 	0.00062
494.4 	0.00064
494.3 	0.00066
494.2 	0.00068
494.1 	0.00069
494.0 	0.00071
493.9 	0.0014
493.8 	0.00209
493.7 	0.00278
493.6 	0.00347
493.5 	0.00416
493.4 	0.00366
493.3 	0.00316
493.2 	0.00267
493.1 	0.00217
493.0 	0.00167
492.9 	0.00147
492.8 	0.00127
492.7 	0.00108
492.6 	0.00088
492.5 	0.00068
492.4 	0.00059
492.3 	0.0005
492.2 	0.00041
492.1 	0.00032
492.0 	0.00023
491.9 	0.00075
491.8 	0.00126
491.7 	0.00178
491.6 	0.0023
491.5 	0.00281
491.4 	0.00249
491.3 	0.00216
491.2 	0.00184
491.1 	0.00151
491.0 	0.00119
490.9 	0.00136
490.8 	0.00154
490.7 	0.00171
490.6 	0.00189
490.5 	0.00206
490.4 	0.00178
490.3 	0.0015
490.2 	0.00122
490.1 	0.00094
490.0 	0.00065
489.9 	0.00065
489.8 	0.00066
489.7 	0.00066
489.6 	0.00066
489.5 	0.00066
489.4 	0.00059
489.3 	0.00053
489.2 	0.00046
489.1 	0.0004
489.0 	0.00033
488.9 	0.00055
488.8 	0.00078
488.7 	0.001
488.6 	0.00122
488.5 	0.00145
488.4 	0.00131
488.3 	0.00117
488.2 	0.00103
488.1 	0.0009
488.0 	0.00076
487.9 	0.00087
487.8 	0.00098
487.7 	0.00109
487.6 	0.0012
487.5 	0.00131
487.4 	0.00119
487.3 	0.00107
487.2 	0.00096
487.1 	0.00084
487.0 	0.00073
486.9 	0.00062
486.8 	0.00051
486.7 	0.0004
486.6 	0.00029
486.5 	0.00018
486.4 	0.0003
486.3 	0.00042
486.2 	0.00054
486.1 	0.00066
486.0 	0.00078
485.9 	0.00078
485.8 	0.00077
485.7 	0.00077
485.6 	0.00077
485.5 	0.00076
485.4 	0.00063
485.3 	0.0005
485.2 	0.00036
485.1 	0.00023
485.0 	9E-05
484.9 	0.00042
484.8 	0.00075
484.7 	0.00108
484.6 	0.00141
484.5 	0.00174
484.4 	0.00148
484.3 	0.00122
484.2 	0.00096
484.1 	0.00071
484.0 	0.00045
483.9 	0.0004
483.8 	0.00035
483.7 	0.00031
483.6 	0.00026
483.5 	0.00021
483.4 	0.00043
483.3 	0.00065
483.2 	0.00086
483.1 	0.00108
483.0 	0.0013
482.9 	0.00117
482.8 	0.00104
482.7 	0.00091
482.6 	0.00078
482.5 	0.00065
482.4 	0.00054
482.3 	0.00043
482.2 	0.00032
482.1 	0.00021
482.0 	0.0001
481.9 	0.00043
481.8 	0.00076
481.7 	0.00108
481.6 	0.00141
481.5 	0.00174
481.4 	0.00181
481.3 	0.00187
481.2 	0.00193
481.1 	0.00199
481.0 	0.00206
480.9 	0.00222
480.8 	0.00239
480.7 	0.00255
480.6 	0.00271
480.5 	0.00288
480.4 	0.00248
480.3 	0.00209
480.2 	0.00169
480.1 	0.0013
480.0 	0.00091
479.9 	0.00095
479.8 	0.00099
479.7 	0.00103
479.6 	0.00107
479.5 	0.00112
479.4 	0.00096
479.3 	0.00079
479.2 	0.00063
479.1 	0.00047
479.0 	0.00031
478.9 	0.00052
478.8 	0.00073
478.7 	0.00095
478.6 	0.00116
478.5 	0.00137
478.4 	0.00141
478.3 	0.00146
478.2 	0.0015
478.1 	0.00155
478.0 	0.00159
477.9 	0.00128
477.8 	0.00098
477.7 	0.00067
477.6 	0.00036
477.5 	5E-05
477.4 	0.00055
477.3 	0.00104
477.2 	0.00154
477.1 	0.00203
477.0 	0.00253
476.9 	0.00225
476.8 	0.00198
476.7 	0.0017
476.6 	0.00143
476.5 	0.00116
476.4 	0.00129
476.3 	0.00143
476.2 	0.00157
476.1 	0.0017
476.0 	0.00184
475.9 	0.00177
475.8 	0.00171
475.7 	0.00164
475.6 	0.00157
475.5 	0.00151
475.4 	0.00124
475.3 	0.00097
475.2 	0.0007
475.1 	0.00043
475.0 	0.00017
474.9 	0.00067
474.8 	0.00117
474.7 	0.00167
474.6 	0.00217
474.5 	0.00268
474.4 	0.00226
474.3 	0.00185
474.2 	0.00144
474.1 	0.00103
474.0 	0.00062
473.9 	0.00082
473.8 	0.00103
473.7 	0.00124
473.6 	0.00144
473.5 	0.00165
473.4 	0.00157
473.3 	0.00149
473.2 	0.00142
473.1 	0.00134
473.0 	0.00126
472.9 	0.00114
472.8 	0.00102
472.7 	0.0009
472.6 	0.00079
472.5 	0.00067
472.4 	0.0009
472.3 	0.00114
472.2 	0.00137
472.1 	0.00161
472.0 	0.00184
471.9 	0.00161
471.8 	0.00137
471.7 	0.00113
471.6 	0.00089
471.5 	0.00065
471.4 	0.00112
471.3 	0.00158
471.2 	0.00205
471.1 	0.00252
471.0 	0.00298
470.9 	0.0025
470.8 	0.00202
470.7 	0.00154
470.6 	0.00105
470.5 	0.00057
470.4 	0.00116
470.3 	0.00175
470.2 	0.00234
470.1 	0.00293
470.0 	0.00352
469.9 	0.00304
469.8 	0.00255
469.7 	0.00207
469.6 	0.00159
469.5 	0.0011
469.4 	0.00154
469.3 	0.00198
469.2 	0.00242
469.1 	0.00286
469.0 	0.00331
468.9 	0.00276
468.8 	0.00222
468.7 	0.00168
468.6 	0.00113
468.5 	0.00059
468.4 	0.00059
468.3 	0.00059
468.2 	0.0006
468.1 	0.0006
468.0 	0.0006
467.9 	0.00078
467.8 	0.00096
467.7 	0.00113
467.6 	0.00131
467.5 	0.00149
467.4 	0.00154
467.3 	0.00158
467.2 	0.00163
467.1 	0.00168
467.0 	0.00172
466.9 	0.00147
466.8 	0.00123
466.7 	0.00098
466.6 	0.00073
466.5 	0.00048
466.4 	0.00046
466.3 	0.00043
466.2 	0.00041
466.1 	0.00038
466.0 	0.00036
465.9 	0.00044
465.8 	0.00051
465.7 	0.00059
465.6 	0.00067
465.5 	0.00075
465.4 	0.00132
465.3 	0.00189
465.2 	0.00247
465.1 	0.00304
465.0 	0.00361
464.9 	0.00325
464.8 	0.00289
464.7 	0.00253
464.6 	0.00218
464.5 	0.00182
464.4 	0.00166
464.3 	0.0015
464.2 	0.00134
464.1 	0.00119
464.0 	0.00103
463.9 	0.00091
463.8 	0.00079
463.7 	0.00067
463.6 	0.00055
463.5 	0.00043
463.4 	0.00045
463.3 	0.00046
463.2 	0.00047
463.1 	0.00049
463.0 	0.0005
462.9 	0.0009
462.8 	0.0013
462.7 	0.00169
462.6 	0.00209
462.5 	0.00249
462.4 	0.002
462.3 	0.00151
462.2 	0.00102
462.1 	0.00052
462.0 	3E-05
461.9 	0.00029
461.8 	0.00055
461.7 	0.00081
461.6 	0.00106
461.5 	0.00132
461.4 	0.00151
461.3 	0.0017
461.2 	0.00189
461.1 	0.00208
461.0 	0.00227
460.9 	0.00235
460.8 	0.00243
460.7 	0.0025
460.6 	0.00258
460.5 	0.00266
460.4 	0.00227
460.3 	0.00188
460.2 	0.00149
460.1 	0.0011
460.0 	0.00072
459.9 	0.00061
459.8 	0.0005
459.7 	0.00039
459.6 	0.00028
459.5 	0.00017
459.4 	0.00057
459.3 	0.00096
459.2 	0.00136
459.1 	0.00176
459.0 	0.00216
458.9 	0.00176
458.8 	0.00137
458.7 	0.00098
458.6 	0.00059
458.5 	0.0002
458.4 	0.00043
458.3 	0.00066
458.2 	0.00089
458.1 	0.00112
458.0 	0.00135
457.9 	0.00117
457.8 	0.00099
457.7 	0.00082
457.6 	0.00065
457.5 	0.00047
457.4 	0.00059
457.3 	0.00071
457.2 	0.00083
457.1 	0.00095
457.0 	0.00107
456.9 	0.00115
456.8 	0.00123
456.7 	0.00131
456.6 	0.00139
456.5 	0.00148
456.4 	0.00123
456.3 	0.00098
456.2 	0.00073
456.1 	0.00048
456.0 	0.00023
455.9 	0.00069
455.8 	0.00116
455.7 	0.00162
455.6 	0.00208
455.5 	0.00254
455.4 	0.0024
455.3 	0.00227
455.2 	0.00213
455.1 	0.002
455.0 	0.00186
454.9 	0.00171
454.8 	0.00156
454.7 	0.0014
454.6 	0.00125
454.5 	0.00109
454.4 	0.00105
454.3 	0.001
454.2 	0.00095
454.1 	0.0009
454.0 	0.00086
453.9 	0.00082
453.8 	0.00078
453.7 	0.00074
453.6 	0.0007
453.5 	0.00066
453.4 	0.00061
453.3 	0.00056
453.2 	0.00052
453.1 	0.00047
453.0 	0.00043
452.9 	0.00048
452.8 	0.00053
452.7 	0.00058
452.6 	0.00063
452.5 	0.00069
452.4 	0.00073
452.3 	0.00078
452.2 	0.00083
452.1 	0.00087
452.0 	0.00092
451.9 	0.00086
451.8 	0.0008
451.7 	0.00075
451.6 	0.00069
451.5 	0.00063
451.4 	0.00083
451.3 	0.00103
451.2 	0.00123
451.1 	0.00144
451.0 	0.00164
450.9 	0.00141
450.8 	0.00117
450.7 	0.00094
450.6 	0.00071
450.5 	0.00047
450.4 	0.00057
450.3 	0.00066
450.2 	0.00076
450.1 	0.00086
450.0 	0.00095
449.9 	0.00086
449.8 	0.00076
449.7 	0.00067
449.6 	0.00057
449.5 	0.00048
449.4 	0.00042
449.3 	0.00037
449.2 	0.00032
449.1 	0.00026
449.0 	0.00021
448.9 	0.00064
448.8 	0.00107
448.7 	0.0015
448.6 	0.00194
448.5 	0.00237
448.4 	0.00232
448.3 	0.00226
448.2 	0.00221
448.1 	0.00216
448.0 	0.00211
447.9 	0.00175
447.8 	0.0014
447.7 	0.00105
447.6 	0.0007
447.5 	0.00035
447.4 	0.0004
447.3 	0.00046
447.2 	0.00051
447.1 	0.00056
447.0 	0.00061
446.9 	0.00064
446.8 	0.00068
446.7 	0.00072
446.6 	0.00075
446.5 	0.00079
446.4 	0.00083
446.3 	0.00087
446.2 	0.0009
446.1 	0.00094
446.0 	0.00098
445.9 	0.00112
445.8 	0.00126
445.7 	0.0014
445.6 	0.00154
445.5 	0.00168
445.4 	0.00135
445.3 	0.00102
445.2 	0.00069
445.1 	0.00037
445.0 	4E-05
444.9 	0.00062
444.8 	0.00121
444.7 	0.0018
444.6 	0.00239
444.5 	0.00298
444.4 	0.00283
444.3 	0.00268
444.2 	0.00254
444.1 	0.00239
444.0 	0.00225
443.9 	0.00187
443.8 	0.00148
443.7 	0.0011
443.6 	0.00072
443.5 	0.00034
443.4 	0.00075
443.3 	0.00116
443.2 	0.00158
443.1 	0.00199
443.0 	0.0024
442.9 	0.00207
442.8 	0.00175
442.7 	0.00142
442.6 	0.00109
442.5 	0.00077
442.4 	0.00096
442.3 	0.00116
442.2 	0.00135
442.1 	0.00155
442.0 	0.00174
441.9 	0.0019
441.8 	0.00206
441.7 	0.00222
441.6 	0.00238
441.5 	0.00254
441.4 	0.0021
441.3 	0.00165
441.2 	0.00121
441.1 	0.00076
441.0 	0.00032
440.9 	0.00059
440.8 	0.00086
440.7 	0.00113
440.6 	0.0014
440.5 	0.00167
440.4 	0.00169
440.3 	0.00171
440.2 	0.00173
440.1 	0.00175
440.0 	0.00176
439.9 	0.00143
439.8 	0.00109
439.7 	0.00075
439.6 	0.00042
439.5 	8E-05
439.4 	0.00038
439.3 	0.00067
439.2 	0.00096
439.1 	0.00126
439.0 	0.00155
438.9 	0.00135
438.8 	0.00115
438.7 	0.00094
438.6 	0.00074
438.5 	0.00054
438.4 	0.00066
438.3 	0.00079
438.2 	0.00091
438.1 	0.00104
438.0 	0.00116
437.9 	0.00149
437.8 	0.00182
437.7 	0.00215
437.6 	0.00248
437.5 	0.00281
437.4 	0.00226
437.3 	0.0017
437.2 	0.00115
437.1 	0.0006
437.0 	4E-05
436.9 	0.001
436.8 	0.00196
436.7 	0.00292
436.6 	0.00388
436.5 	0.00484
436.4 	0.00405
436.3 	0.00327
436.2 	0.00248
436.1 	0.00169
436.0 	0.00091
435.9 	0.00143
435.8 	0.00196
435.7 	0.00248
435.6 	0.00301
435.5 	0.00354
435.4 	0.0029
435.3 	0.00226
435.2 	0.00163
435.1 	0.00099
435.0 	0.00035
434.9 	0.00099
434.8 	0.00163
434.7 	0.00227
434.6 	0.00292
434.5 	0.00356
434.4 	0.00315
434.3 	0.00274
434.2 	0.00234
434.1 	0.00193
434.0 	0.00153
433.9 	0.00206
433.8 	0.0026
433.7 	0.00314
433.6 	0.00367
433.5 	0.00421
433.4 	0.00411
433.3 	0.00401
433.2 	0.00391
433.1 	0.00382
433.0 	0.00372
432.9 	0.00321
432.8 	0.00271
432.7 	0.00221
432.6 	0.00171
432.5 	0.0012
432.4 	0.00131
432.3 	0.00141
432.2 	0.00152
432.1 	0.00162
432.0 	0.00173
431.9 	0.00163
431.8 	0.00153
431.7 	0.00143
431.6 	0.00133
431.5 	0.00123
431.4 	0.00114
431.3 	0.00106
431.2 	0.00098
431.1 	0.0009
431.0 	0.00081
430.9 	0.00105
430.8 	0.00128
430.7 	0.00151
430.6 	0.00175
430.5 	0.00198
430.4 	0.00185
430.3 	0.00171
430.2 	0.00158
430.1 	0.00145
430.0 	0.00132
429.9 	0.00122
429.8 	0.00112
429.7 	0.00103
429.6 	0.00093
429.5 	0.00084
429.4 	0.00108
429.3 	0.00132
429.2 	0.00156
429.1 	0.0018
429.0 	0.00204
428.9 	0.00201
428.8 	0.00197
428.7 	0.00194
428.6 	0.0019
428.5 	0.00186
428.4 	0.00194
428.3 	0.00202
428.2 	0.00209
428.1 	0.00217
428.0 	0.00224
427.9 	0.00221
427.8 	0.00217
427.7 	0.00213
427.6 	0.0021
427.5 	0.00206
427.4 	0.00177
427.3 	0.00149
427.2 	0.0012
427.1 	0.00091
427.0 	0.00063
426.9 	0.0007
426.8 	0.00078
426.7 	0.00085
426.6 	0.00092
426.5 	0.001
426.4 	0.00111
426.3 	0.00122
426.2 	0.00133
426.1 	0.00144
426.0 	0.00154
425.9 	0.00176
425.8 	0.00198
425.7 	0.0022
425.6 	0.00242
425.5 	0.00264
425.4 	0.0023
425.3 	0.00195
425.2 	0.00161
425.1 	0.00127
425.0 	0.00093
424.9 	0.00088
424.8 	0.00084
424.7 	0.0008
424.6 	0.00076
424.5 	0.00072
424.4 	0.00065
424.3 	0.00059
424.2 	0.00052
424.1 	0.00046
424.0 	0.00039
423.9 	0.00064
423.8 	0.00089
423.7 	0.00114
423.6 	0.00139
423.5 	0.00164
423.4 	0.00148
423.3 	0.00133
423.2 	0.00117
423.1 	0.00101
423.0 	0.00086
422.9 	0.0013
422.8 	0.00174
422.7 	0.00218
422.6 	0.00263
422.5 	0.00307
422.4 	0.0025
422.3 	0.00193
422.2 	0.00137
422.1 	0.0008
422.0 	0.00023
421.9 	0.00053
421.8 	0.00083
421.7 	0.00113
421.6 	0.00142
421.5 	0.00172
421.4 	0.00142
421.3 	0.00113
421.2 	0.00083
421.1 	0.00054
421.0 	0.00024
420.9 	0.00061
420.8 	0.00097
420.7 	0.00134
420.6 	0.0017
420.5 	0.00207
420.4 	0.00273
420.3 	0.00339
420.2 	0.00405
420.1 	0.00471
420.0 	0.00537
419.9 	0.00472
419.8 	0.00407
419.7 	0.00342
419.6 	0.00277
419.5 	0.00212
419.4 	0.00176
419.3 	0.0014
419.2 	0.00104
419.1 	0.00068
419.0 	0.00032
418.9 	0.00113
418.8 	0.00194
418.7 	0.00275
418.6 	0.00356
418.5 	0.00437
418.4 	0.00374
418.3 	0.00311
418.2 	0.00249
418.1 	0.00186
418.0 	0.00124
417.9 	0.00124
417.8 	0.00124
417.7 	0.00124
417.6 	0.00125
417.5 	0.00125
417.4 	0.00117
417.3 	0.0011
417.2 	0.00102
417.1 	0.00094
417.0 	0.00087
416.9 	0.00152
416.8 	0.00217
416.7 	0.00282
416.6 	0.00347
416.5 	0.00412
416.4 	0.00401
416.3 	0.0039
416.2 	0.00379
416.1 	0.00368
416.0 	0.00357
415.9 	0.00287
415.8 	0.00217
415.7 	0.00147
415.6 	0.00077
415.5 	7E-05
415.4 	0.0001
415.3 	0.00013
415.2 	0.00015
415.1 	0.00018
415.0 	0.00021
414.9 	0.00058
414.8 	0.00096
414.7 	0.00133
414.6 	0.0017
414.5 	0.00207
414.4 	0.0018
414.3 	0.00153
414.2 	0.00127
414.1 	0.001
414.0 	0.00073
413.9 	0.00145
413.8 	0.00218
413.7 	0.0029
413.6 	0.00362
413.5 	0.00435
413.4 	0.00406
413.3 	0.00378
413.2 	0.00349
413.1 	0.0032
413.0 	0.00292
412.9 	0.00244
412.8 	0.00196
412.7 	0.00148
412.6 	0.00101
412.5 	0.00053
412.4 	0.00164
412.3 	0.00276
412.2 	0.00387
412.1 	0.00498
412.0 	0.00609
411.9 	0.00492
411.8 	0.00375
411.7 	0.00258
411.6 	0.00141
411.5 	0.00023
411.4 	0.00138
411.3 	0.00252
411.2 	0.00366
411.1 	0.00481
411.0 	0.00595
410.9 	0.00523
410.8 	0.0045
410.7 	0.00378
410.6 	0.00306
410.5 	0.00234
410.4 	0.00231
410.3 	0.00229
410.2 	0.00226
410.1 	0.00224
410.0 	0.00221
409.9 	0.0018
409.8 	0.00139
409.7 	0.00098
409.6 	0.00058
409.5 	0.00017
409.4 	0.00137
409.3 	0.00256
409.2 	0.00376
409.1 	0.00496
409.0 	0.00616
408.9 	0.00493
408.8 	0.0037
408.7 	0.00246
408.6 	0.00123
408.5 	0
408.4 	0.0011
408.3 	0.00219
408.2 	0.00329
408.1 	0.00439
408.0 	0.00549
407.9 	0.00448
407.8 	0.00347
407.7 	0.00246
407.6 	0.00145
407.5 	0.00044
407.4 	0.00052
407.3 	0.00059
407.2 	0.00066
407.1 	0.00074
407.0 	0.00081
406.9 	0.00189
406.8 	0.00297
406.7 	0.00405
406.6 	0.00513
406.5 	0.00621
406.4 	0.00633
406.3 	0.00644
406.2 	0.00656
406.1 	0.00667
406.0 	0.00679
405.9 	0.0059
405.8 	0.00502
405.7 	0.00413
405.6 	0.00325
405.5 	0.00236
405.4 	0.00293
405.3 	0.00349
405.2 	0.00406
405.1 	0.00463
405.0 	0.00519
404.9 	0.00462
404.8 	0.00405
404.7 	0.00348
404.6 	0.00291
404.5 	0.00235
404.4 	0.00283
404.3 	0.00331
404.2 	0.00379
404.1 	0.00428
404.0 	0.00476
403.9 	0.00419
403.8 	0.00362
403.7 	0.00306
403.6 	0.00249
403.5 	0.00192
403.4 	0.00242
403.3 	0.00292
403.2 	0.00342
403.1 	0.00392
403.0 	0.00442
402.9 	0.004
402.8 	0.00357
402.7 	0.00315
402.6 	0.00272
402.5 	0.0023
402.4 	0.00252
402.3 	0.00274
402.2 	0.00296
402.1 	0.00319
402.0 	0.00341
401.9 	0.00309
401.8 	0.00278
401.7 	0.00247
401.6 	0.00215
401.5 	0.00184
401.4 	0.0024
401.3 	0.00295
401.2 	0.00351
401.1 	0.00407
401.0 	0.00463
400.9 	0.00451
400.8 	0.00439
400.7 	0.00427
400.6 	0.00415
400.5 	0.00404
400.4 	0.00343
400.3 	0.00283
400.2 	0.00223
400.1 	0.00163
400.0 	0.00103
399.9 	0.00112
399.8 	0.00122
399.7 	0.00132
399.6 	0.00141
399.5 	0.00151
399.4 	0.00128
399.3 	0.00105
399.2 	0.00082
399.1 	0.00059
399.0 	0.00036
398.9 	0.00057
398.8 	0.00079
398.7 	0.00101
398.6 	0.00123
398.5 	0.00145
398.4 	0.00214
398.3 	0.00283
398.2 	0.00352
398.1 	0.00421
398.0 	0.0049
397.9 	0.00477
397.8 	0.00463
397.7 	0.0045
397.6 	0.00437
397.5 	0.00424
397.4 	0.004
397.3 	0.00376
397.2 	0.00353
397.1 	0.00329
397.0 	0.00305
396.9 	0.00446
396.8 	0.00587
396.7 	0.00727
396.6 	0.00868
396.5 	0.01008
396.4 	0.00949
396.3 	0.00889
396.2 	0.00829
396.1 	0.00769
396.0 	0.00709
395.9 	0.00704
395.8 	0.00699
395.7 	0.00694
395.6 	0.00689
395.5 	0.00683
395.4 	0.00549
395.3 	0.00415
395.2 	0.00281
395.1 	0.00148
395.0 	0.00014
394.9 	0.00047
394.8 	0.0008
394.7 	0.00114
394.6 	0.00147
394.5 	0.0018
394.4 	0.00322
394.3 	0.00464
394.2 	0.00606
394.1 	0.00748
394.0 	0.00891
393.9 	0.00712
393.8 	0.00534
393.7 	0.00356
393.6 	0.00178
393.5 	0
393.4 	0.00105
393.3 	0.00211
393.2 	0.00316
393.1 	0.00421
393.0 	0.00526
392.9 	0.00525
392.8 	0.00524
392.7 	0.00523
392.6 	0.00522
392.5 	0.00521
392.4 	0.00544
392.3 	0.00567
392.2 	0.0059
392.1 	0.00613
392.0 	0.00636
391.9 	0.00611
391.8 	0.00585
391.7 	0.0056
391.6 	0.00535
391.5 	0.00509
391.4 	0.00527
391.3 	0.00544
391.2 	0.00562
391.1 	0.00579
391.0 	0.00597
390.9 	0.00532
390.8 	0.00467
390.7 	0.00402
390.6 	0.00337
390.5 	0.00272
390.4 	0.00321
390.3 	0.00371
390.2 	0.0042
390.1 	0.0047
390.0 	0.00519
389.9 	0.00557
389.8 	0.00596
389.7 	0.00634
389.6 	0.00672
389.5 	0.0071
389.4 	0.00696
389.3 	0.00681
389.2 	0.00667
389.1 	0.00652
389.0 	0.00638
388.9 	0.00561
388.8 	0.00485
388.7 	0.00408
388.6 	0.00332
388.5 	0.00256
388.4 	0.00291
388.3 	0.00327
388.2 	0.00362
388.1 	0.00398
388.0 	0.00434
387.9 	0.00513
387.8 	0.00591
387.7 	0.0067
387.6 	0.00749
387.5 	0.00828
387.4 	0.00677
387.3 	0.00525
387.2 	0.00374
387.1 	0.00223
387.0 	0.00072
386.9 	0.00068
386.8 	0.00065
386.7 	0.00061
386.6 	0.00058
386.5 	0.00055
386.4 	0.00262
386.3 	0.00469
386.2 	0.00676
386.1 	0.00884
386.0 	0.01091
385.9 	0.00884
385.8 	0.00677
385.7 	0.0047
385.6 	0.00263
385.5 	0.00056
385.4 	0.00117
385.3 	0.00178
385.2 	0.0024
385.1 	0.00301
385.0 	0.00362
384.9 	0.00405
384.8 	0.00448
384.7 	0.00492
384.6 	0.00535
384.5 	0.00578
384.4 	0.00572
384.3 	0.00567
384.2 	0.00561
384.1 	0.00555
384.0 	0.00549
383.9 	0.00443
383.8 	0.00337
383.7 	0.00231
383.6 	0.00126
383.5 	0.0002
383.4 	0.00314
383.3 	0.00608
383.2 	0.00902
383.1 	0.01196
383.0 	0.0149
382.9 	0.01437
382.8 	0.01385
382.7 	0.01332
382.6 	0.01279
382.5 	0.01227
382.4 	0.00985
382.3 	0.00744
382.2 	0.00503
382.1 	0.00262
382.0 	0.00021
381.9 	0.00054
381.8 	0.00088
381.7 	0.00122
381.6 	0.00155
381.5 	0.00189
381.4 	0.0016
381.3 	0.0013
381.2 	0.00101
381.1 	0.00072
381.0 	0.00043
380.9 	0.00099
380.8 	0.00155
380.7 	0.00211
380.6 	0.00267
380.5 	0.00323
380.4 	0.0039
380.3 	0.00456
380.2 	0.00523
380.1 	0.00589
380.0 	0.00655
379.9 	0.00811
379.8 	0.00967
379.7 	0.01123
379.6 	0.01279
379.5 	0.01435
379.4 	0.01175
379.3 	0.00915
379.2 	0.00655
379.1 	0.00395
379.0 	0.00134
378.9 	0.00185
378.8 	0.00235
378.7 	0.00285
378.6 	0.00335
378.5 	0.00386
378.4 	0.00368
378.3 	0.00351
378.2 	0.00333
378.1 	0.00316
378.0 	0.00298
377.9 	0.0028
377.8 	0.00262
377.7 	0.00245
377.6 	0.00227
377.5 	0.00209
377.4 	0.00167
377.3 	0.00125
377.2 	0.00084
377.1 	0.00042
377.0 	0
376.9 	0
376.8 	0
376.7 	0
376.6 	0
376.5 	0
376.4 	0.00072
376.3 	0.00144
376.2 	0.00217
376.1 	0.00289
376.0 	0.00361
375.9 	0.00289
375.8 	0.00217
375.7 	0.00144
375.6 	0.00072
375.5 	0
375.4 	0.00241
375.3 	0.00483
375.2 	0.00724
375.1 	0.00965
375.0 	0.01207
374.9 	0.01145
374.8 	0.01083
374.7 	0.0102
374.6 	0.00958
374.5 	0.00896
374.4 	0.00894
374.3 	0.00891
374.2 	0.00888
374.1 	0.00885
374.0 	0.00883
373.9 	0.00849
373.8 	0.00815
373.7 	0.00782
373.6 	0.00748
373.5 	0.00714
373.4 	0.00726
373.3 	0.00738
373.2 	0.00751
373.1 	0.00763
373.0 	0.00775
372.9 	0.00635
372.8 	0.00496
372.7 	0.00357
372.6 	0.00218
372.5 	0.00078
372.4 	0.00226
372.3 	0.00375
372.2 	0.00523
372.1 	0.00671
372.0 	0.00819
371.9 	0.00901
371.8 	0.00983
371.7 	0.01065
371.6 	0.01148
371.5 	0.0123
371.4 	0.01027
371.3 	0.00824
371.2 	0.00622
371.1 	0.00419
371.0 	0.00216
370.9 	0.00332
370.8 	0.00447
370.7 	0.00563
370.6 	0.00678
370.5 	0.00793
370.4 	0.00856
370.3 	0.0092
370.2 	0.00983
370.1 	0.01046
370.0 	0.01109
369.9 	0.00905
369.8 	0.00701
369.7 	0.00497
369.6 	0.00292
369.5 	0.00088
369.4 	0.00103
369.3 	0.00117
369.2 	0.00132
369.1 	0.00146
369.0 	0.00161
368.9 	0.00146
368.8 	0.00132
368.7 	0.00118
368.6 	0.00104
368.5 	0.00089
368.4 	0.00131
368.3 	0.00173
368.2 	0.00215
368.1 	0.00256
368.0 	0.00298
367.9 	0.00241
367.8 	0.00183
367.7 	0.00126
367.6 	0.00068
367.5 	0.0001
367.4 	0.0003
367.3 	0.00049
367.2 	0.00068
367.1 	0.00088
367.0 	0.00107
366.9 	0.00113
366.8 	0.00118
366.7 	0.00123
366.6 	0.00128
366.5 	0.00134
366.4 	0.00135
366.3 	0.00137
366.2 	0.00138
366.1 	0.0014
366.0 	0.00141
365.9 	0.00168
365.8 	0.00195
365.7 	0.00222
365.6 	0.00248
365.5 	0.00275
365.4 	0.0025
365.3 	0.00226
365.2 	0.00201
365.1 	0.00176
365.0 	0.00151
364.9 	0.0014
364.8 	0.00128
364.7 	0.00117
364.6 	0.00105
364.5 	0.00094
364.4 	0.0008
364.3 	0.00066
364.2 	0.00052
364.1 	0.00038
364.0 	0.00024
363.9 	0.00026
363.8 	0.00028
363.7 	0.00029
363.6 	0.00031
363.5 	0.00033
363.4 	0.00063
363.3 	0.00093
363.2 	0.00122
363.1 	0.00152
363.0 	0.00182
362.9 	0.00161
362.8 	0.00139
362.7 	0.00118
362.6 	0.00097
362.5 	0.00076
362.4 	0.00096
362.3 	0.00115
362.2 	0.00135
362.1 	0.00154
362.0 	0.00174
361.9 	0.00151
361.8 	0.00129
361.7 	0.00106
361.6 	0.00084
361.5 	0.00062
361.4 	0.00079
361.3 	0.00096
361.2 	0.00114
361.1 	0.00131
361.0 	0.00149
360.9 	0.00141
360.8 	0.00133
360.7 	0.00125
360.6 	0.00117
360.5 	0.00109
360.4 	0.00093
360.3 	0.00078
360.2 	0.00063
360.1 	0.00048
360.0 	0.00033
359.9 	0.00048
359.8 	0.00063
359.7 	0.00078
359.6 	0.00093
359.5 	0.00108
359.4 	0.00104
359.3 	0.001
359.2 	0.00096
359.1 	0.00092
359.0 	0.00088
358.9 	0.0009
358.8 	0.00093
358.7 	0.00096
358.6 	0.00098
358.5 	0.00101
358.4 	0.00115
358.3 	0.0013
358.2 	0.00145
358.1 	0.00159
358.0 	0.00174
357.9 	0.00154
357.8 	0.00135
357.7 	0.00115
357.6 	0.00096
357.5 	0.00076
357.4 	0.00087
357.3 	0.00099
357.2 	0.0011
357.1 	0.00122
357.0 	0.00133
356.9 	0.0012
356.8 	0.00107
356.7 	0.00094
356.6 	0.00081
356.5 	0.00068
356.4 	0.00067
356.3 	0.00067
356.2 	0.00067
356.1 	0.00066
356.0 	0.00066
355.9 	0.00067
355.8 	0.00067
355.7 	0.00068
355.6 	0.00069
355.5 	0.00069
355.4 	0.00091
355.3 	0.00112
355.2 	0.00134
355.1 	0.00156
355.0 	0.00177
354.9 	0.00143
354.8 	0.00108
354.7 	0.00074
354.6 	0.0004
354.5 	5E-05
354.4 	0.00055
354.3 	0.00105
354.2 	0.00156
354.1 	0.00206
354.0 	0.00256
353.9 	0.00254
353.8 	0.00252
353.7 	0.00251
353.6 	0.00249
353.5 	0.00247
353.4 	0.00206
353.3 	0.00165
353.2 	0.00123
353.1 	0.00082
353.0 	0.00041
352.9 	0.00055
352.8 	0.0007
352.7 	0.00085
352.6 	0.001
352.5 	0.00114
352.4 	0.00093
352.3 	0.00071
352.2 	0.00049
352.1 	0.00028
352.0 	6E-05
351.9 	0.00017
351.8 	0.00028
351.7 	0.00039
351.6 	0.0005
351.5 	0.00061
351.4 	0.00072
351.3 	0.00084
351.2 	0.00095
351.1 	0.00107
351.0 	0.00118
350.9 	0.00121
350.8 	0.00123
350.7 	0.00126
350.6 	0.00128
350.5 	0.00131
350.4 	0.00106
350.3 	0.00081
350.2 	0.00056
350.1 	0.00032
350.0 	7E-05
349.9 	0.0007
349.8 	0.00133
349.7 	0.00197
349.6 	0.0026
349.5 	0.00323
349.4 	0.00284
349.3 	0.00244
349.2 	0.00205
349.1 	0.00166
349.0 	0.00126
348.9 	0.00149
348.8 	0.00171
348.7 	0.00194
348.6 	0.00216
348.5 	0.00239
348.4 	0.00199
348.3 	0.0016
348.2 	0.00121
348.1 	0.00082
348.0 	0.00042
347.9 	0.00077
347.8 	0.00112
347.7 	0.00147
347.6 	0.00181
347.5 	0.00216
347.4 	0.00201
347.3 	0.00185
347.2 	0.00169
347.1 	0.00153
347.0 	0.00138
346.9 	0.00121
346.8 	0.00105
346.7 	0.00088
346.6 	0.00072
346.5 	0.00055
346.4 	0.0008
346.3 	0.00104
346.2 	0.00129
346.1 	0.00154
346.0 	0.00178
345.9 	0.00165
345.8 	0.00153
345.7 	0.0014
345.6 	0.00127
345.5 	0.00114
345.4 	0.00134
345.3 	0.00153
345.2 	0.00172
345.1 	0.00192
345.0 	0.00211
344.9 	0.00204
344.8 	0.00197
344.7 	0.00189
344.6 	0.00182
344.5 	0.00175
344.4 	0.00146
344.3 	0.00116
344.2 	0.00087
344.1 	0.00058
344.0 	0.00028
343.9 	0.00032
343.8 	0.00036
343.7 	0.0004
343.6 	0.00043
343.5 	0.00047
343.4 	0.00077
343.3 	0.00108
343.2 	0.00138
343.1 	0.00168
343.0 	0.00199
342.9 	0.00188
342.8 	0.00177
342.7 	0.00167
342.6 	0.00156
342.5 	0.00146
342.4 	0.00171
342.3 	0.00196
342.2 	0.00222
342.1 	0.00247
342.0 	0.00273
341.9 	0.00259
341.8 	0.00245
341.7 	0.00232
341.6 	0.00218
341.5 	0.00204
341.4 	0.00178
341.3 	0.00152
341.2 	0.00126
341.1 	0.001
341.0 	0.00074
340.9 	0.00131
340.8 	0.00188
340.7 	0.00245
340.6 	0.00302
340.5 	0.00359
340.4 	0.00324
340.3 	0.00289
340.2 	0.00254
340.1 	0.00218
340.0 	0.00183
339.9 	0.00148
339.8 	0.00112
339.7 	0.00077
339.6 	0.00042
339.5 	7E-05
339.4 	0.00031
339.3 	0.00056
339.2 	0.00081
339.1 	0.00105
339.0 	0.0013
338.9 	0.00141
338.8 	0.00152
338.7 	0.00163
338.6 	0.00175
338.5 	0.00186
338.4 	0.00193
338.3 	0.002
338.2 	0.00208
338.1 	0.00215
338.0 	0.00222
337.9 	0.00195
337.8 	0.00168
337.7 	0.0014
337.6 	0.00113
337.5 	0.00086
337.4 	0.00084
337.3 	0.00082
337.2 	0.0008
337.1 	0.00078
337.0 	0.00076
336.9 	0.00083
336.8 	0.00089
336.7 	0.00096
336.6 	0.00103
336.5 	0.00109
336.4 	0.00097
336.3 	0.00084
336.2 	0.00072
336.1 	0.00059
336.0 	0.00047
335.9 	0.00107
335.8 	0.00168
335.7 	0.00229
335.6 	0.0029
335.5 	0.00351
335.4 	0.00301
335.3 	0.00252
335.2 	0.00203
335.1 	0.00154
335.0 	0.00104
334.9 	0.00119
334.8 	0.00134
334.7 	0.00149
334.6 	0.00164
334.5 	0.00179
334.4 	0.00196
334.3 	0.00213
334.2 	0.0023
334.1 	0.00247
334.0 	0.00264
333.9 	0.00266
333.8 	0.00268
333.7 	0.00269
333.6 	0.00271
333.5 	0.00273
333.4 	0.00227
333.3 	0.00181
333.2 	0.00136
333.1 	0.0009
333.0 	0.00044
332.9 	0.00083
332.8 	0.00122
332.7 	0.0016
332.6 	0.00199
332.5 	0.00237
332.4 	0.00246
332.3 	0.00254
332.2 	0.00263
332.1 	0.00272
332.0 	0.0028
331.9 	0.00253
331.8 	0.00226
331.7 	0.002
331.6 	0.00173
331.5 	0.00146
331.4 	0.0013
331.3 	0.00114
331.2 	0.00098
331.1 	0.00082
331.0 	0.00066
330.9 	0.00087
330.8 	0.00107
330.7 	0.00128
330.6 	0.00148
330.5 	0.00169
330.4 	0.00141
330.3 	0.00112
330.2 	0.00084
330.1 	0.00056
330.0 	0.00028
329.9 	0.00062
329.8 	0.00097
329.7 	0.00131
329.6 	0.00165
329.5 	0.00199
329.4 	0.00162
329.3 	0.00125
329.2 	0.00088
329.1 	0.00051
329.0 	0.00014
328.9 	0.00029
328.8 	0.00043
328.7 	0.00057
328.6 	0.00072
328.5 	0.00086
328.4 	0.00088
328.3 	0.00091
328.2 	0.00093
328.1 	0.00095
328.0 	0.00097
327.9 	0.00161
327.8 	0.00225
327.7 	0.00289
327.6 	0.00352
327.5 	0.00416
327.4 	0.00379
327.3 	0.00343
327.2 	0.00306
327.1 	0.00269
327.0 	0.00233
326.9 	0.00227
326.8 	0.00222
326.7 	0.00216
326.6 	0.00211
326.5 	0.00205
326.4 	0.00176
326.3 	0.00147
326.2 	0.00117
326.1 	0.00088
326.0 	0.00059
325.9 	0.00129
325.8 	0.00199
325.7 	0.00269
325.6 	0.00338
325.5 	0.00408
325.4 	0.0035
325.3 	0.00293
325.2 	0.00235
325.1 	0.00177
325.0 	0.00119
324.9 	0.00114
324.8 	0.00109
324.7 	0.00104
324.6 	0.00099
324.5 	0.00094
324.4 	0.00085
324.3 	0.00076
324.2 	0.00067
324.1 	0.00058
324.0 	0.00049
323.9 	0.00085
323.8 	0.00121
323.7 	0.00157
323.6 	0.00194
323.5 	0.0023
323.4 	0.00221
323.3 	0.00212
323.2 	0.00203
323.1 	0.00195
323.0 	0.00186
322.9 	0.00194
322.8 	0.00202
322.7 	0.0021
322.6 	0.00218
322.5 	0.00226
322.4 	0.00258
322.3 	0.00289
322.2 	0.00321
322.1 	0.00352
322.0 	0.00384
321.9 	0.00348
321.8 	0.00311
321.7 	0.00275
321.6 	0.00239
321.5 	0.00203
321.4 	0.00177
321.3 	0.00152
321.2 	0.00126
321.1 	0.001
321.0 	0.00075
320.9 	0.00061
320.8 	0.00046
320.7 	0.00032
320.6 	0.00018
320.5 	4E-05
320.4 	0.0001
320.3 	0.00015
320.2 	0.00021
320.1 	0.00026
320.0 	0.00032
319.9 	0.00106
319.8 	0.0018
319.7 	0.00254
319.6 	0.00328
319.5 	0.00402
319.4 	0.00325
319.3 	0.00248
319.2 	0.0017
319.1 	0.00093
319.0 	0.00016
318.9 	0.00019
318.8 	0.00021
318.7 	0.00024
318.6 	0.00026
318.5 	0.00029
318.4 	0.00024
318.3 	0.00019
318.2 	0.00014
318.1 	9E-05
318.0 	4E-05
317.9 	0.00046
317.8 	0.00087
317.7 	0.00129
317.6 	0.0017
317.5 	0.00212
317.4 	0.00197
317.3 	0.00182
317.2 	0.00167
317.1 	0.00153
317.0 	0.00138
316.9 	0.00125
316.8 	0.00111
316.7 	0.00098
316.6 	0.00085
316.5 	0.00071
316.4 	0.00062
316.3 	0.00053
316.2 	0.00044
316.1 	0.00035
316.0 	0.00025
315.9 	0.0003
315.8 	0.00034
315.7 	0.00038
315.6 	0.00042
315.5 	0.00047
315.4 	0.00111
315.3 	0.00176
315.2 	0.0024
315.1 	0.00305
315.0 	0.00369
314.9 	0.00308
314.8 	0.00246
314.7 	0.00184
314.6 	0.00122
314.5 	0.00061
314.4 	0.00085
314.3 	0.00109
314.2 	0.00134
314.1 	0.00158
314.0 	0.00183
313.9 	0.00152
313.8 	0.0012
313.7 	0.00089
313.6 	0.00058
313.5 	0.00026
313.4 	0.00031
313.3 	0.00035
313.2 	0.0004
313.1 	0.00044
313.0 	0.00049
312.9 	0.00043
312.8 	0.00038
312.7 	0.00033
312.6 	0.00028
312.5 	0.00022
312.4 	0.00083
312.3 	0.00144
312.2 	0.00204
312.1 	0.00265
312.0 	0.00325
311.9 	0.00375
311.8 	0.00424
311.7 	0.00473
311.6 	0.00522
311.5 	0.00571
311.4 	0.00559
311.3 	0.00547
311.2 	0.00536
311.1 	0.00524
311.0 	0.00512
310.9 	0.00433
310.8 	0.00354
310.7 	0.00275
310.6 	0.00196
310.5 	0.00117
310.4 	0.0014
310.3 	0.00164
310.2 	0.00188
310.1 	0.00212
310.0 	0.00236
309.9 	0.00276
309.8 	0.00316
309.7 	0.00357
309.6 	0.00397
309.5 	0.00438
309.4 	0.00432
309.3 	0.00426
309.2 	0.0042
309.1 	0.00414
309.0 	0.00408
308.9 	0.00373
308.8 	0.00338
308.7 	0.00303
308.6 	0.00268
308.5 	0.00233
308.4 	0.00222
308.3 	0.0021
308.2 	0.00199
308.1 	0.00188
308.0 	0.00177
307.9 	0.00153
307.8 	0.0013
307.7 	0.00106
307.6 	0.00083
307.5 	0.00059
307.4 	0.00063
307.3 	0.00066
307.2 	0.00069
307.1 	0.00072
307.0 	0.00075
306.9 	0.00115
306.8 	0.00154
306.7 	0.00194
306.6 	0.00234
306.5 	0.00273
306.4 	0.00266
306.3 	0.00258
306.2 	0.0025
306.1 	0.00242
306.0 	0.00235
305.9 	0.00193
305.8 	0.00151
305.7 	0.00109
305.6 	0.00068
305.5 	0.00026
305.4 	0.00052
305.3 	0.00078
305.2 	0.00104
305.1 	0.0013
305.0 	0.00156
304.9 	0.00156
304.8 	0.00155
304.7 	0.00154
304.6 	0.00153
304.5 	0.00153
304.4 	0.00162
304.3 	0.00172
304.2 	0.00182
304.1 	0.00192
304.0 	0.00202
303.9 	0.00221
303.8 	0.0024
303.7 	0.00258
303.6 	0.00277
303.5 	0.00296
303.4 	0.00252
303.3 	0.00208
303.2 	0.00164
303.1 	0.0012
303.0 	0.00076
302.9 	0.00096
302.8 	0.00116
302.7 	0.00136
302.6 	0.00156
302.5 	0.00176
302.4 	0.0015
302.3 	0.00125
302.2 	0.001
302.1 	0.00075
302.0 	0.0005
301.9 	0.00075
301.8 	0.00099
301.7 	0.00124
301.6 	0.00149
301.5 	0.00174
301.4 	0.00224
301.3 	0.00274
301.2 	0.00324
301.1 	0.00374
301.0 	0.00425
300.9 	0.004
300.8 	0.00376
300.7 	0.00351
300.6 	0.00327
300.5 	0.00302
300.4 	0.00265
300.3 	0.00227
300.2 	0.0019
300.1 	0.00153
300.0 	0.00115
